H2O_H2O
Furnace temperature 	Time	HeatFlow	
/°C	/s	/mW	
64.93	0	-0.16	
64.93	1	-0.16	
65.03	1	-0.16	
65.13	2	-0.16	
65.22	3	-0.16	
65.32	4	-0.16	
65.44	4	-0.16	
65.57	5	-0.16	
65.72	6	-0.16	
65.88	6	-0.16	
66.04	7	-0.17	
66.21	8	-0.17	
66.38	8	-0.17	
66.55	9	-0.17	
66.71	10	-0.17	
66.87	11	-0.18	
67.02	11	-0.18	
67.16	12	-0.19	
67.29	13	-0.19	
67.40	13	-0.20	
67.51	14	-0.20	
67.60	15	-0.21	
67.67	15	-0.22	
67.74	16	-0.22	
67.80	17	-0.23	
67.84	18	-0.24	
67.87	18	-0.25	
67.90	19	-0.25	
67.91	20	-0.26	
67.92	20	-0.27	
67.93	21	-0.28	
67.93	22	-0.29	
67.93	22	-0.30	
67.92	23	-0.31	
67.91	24	-0.31	
67.90	25	-0.32	
67.89	25	-0.33	
67.89	26	-0.34	
67.88	27	-0.35	
67.87	27	-0.35	
67.87	28	-0.36	
67.87	29	-0.37	
67.86	29	-0.38	
67.86	30	-0.39	
67.86	31	-0.39	
67.86	32	-0.40	
67.86	32	-0.41	
67.86	33	-0.41	
67.87	34	-0.42	
67.87	34	-0.43	
67.87	35	-0.44	
67.87	36	-0.44	
67.87	36	-0.45	
67.88	37	-0.46	
67.88	38	-0.46	
67.88	39	-0.47	
67.88	39	-0.48	
67.87	40	-0.49	
67.87	41	-0.49	
67.87	41	-0.50	
67.86	42	-0.51	
67.86	43	-0.51	
67.85	43	-0.52	
67.85	44	-0.52	
67.84	45	-0.53	
67.83	46	-0.54	
67.83	46	-0.54	
67.82	47	-0.55	
67.81	48	-0.55	
67.80	48	-0.56	
67.80	49	-0.57	
67.79	50	-0.57	
67.78	50	-0.58	
67.77	51	-0.58	
67.77	52	-0.59	
67.76	53	-0.59	
67.75	53	-0.60	
67.74	54	-0.60	
67.73	55	-0.60	
67.73	55	-0.61	
67.72	56	-0.61	
67.71	57	-0.62	
67.70	57	-0.62	
67.69	58	-0.62	
67.69	59	-0.63	
67.68	60	-0.63	
67.67	60	-0.64	
67.66	61	-0.64	
67.65	62	-0.64	
67.64	62	-0.65	
67.63	63	-0.65	
67.63	64	-0.65	
67.62	64	-0.66	
67.61	65	-0.66	
67.60	66	-0.66	
67.59	67	-0.66	
67.58	67	-0.67	
67.57	68	-0.67	
67.56	69	-0.67	
67.55	69	-0.67	
67.54	70	-0.68	
67.53	71	-0.68	
67.52	71	-0.68	
67.51	72	-0.68	
67.50	73	-0.68	
67.49	74	-0.69	
67.48	74	-0.69	
67.46	75	-0.69	
67.45	76	-0.69	
67.44	76	-0.69	
67.43	77	-0.69	
67.42	78	-0.69	
67.41	78	-0.69	
67.40	79	-0.69	
67.39	80	-0.70	
67.38	81	-0.70	
67.37	81	-0.70	
67.36	82	-0.70	
67.35	83	-0.70	
67.33	83	-0.70	
67.32	84	-0.70	
67.31	85	-0.70	
67.30	85	-0.70	
67.29	86	-0.69	
67.28	87	-0.69	
67.27	88	-0.69	
67.26	88	-0.69	
67.24	89	-0.69	
67.23	90	-0.69	
67.22	90	-0.69	
67.21	91	-0.69	
67.20	92	-0.69	
67.19	92	-0.69	
67.17	93	-0.69	
67.16	94	-0.69	
67.15	95	-0.68	
67.14	95	-0.68	
67.13	96	-0.68	
67.11	97	-0.68	
67.10	97	-0.68	
67.09	98	-0.68	
67.08	99	-0.67	
67.07	99	-0.67	
67.05	100	-0.67	
67.04	101	-0.67	
67.03	102	-0.67	
67.02	102	-0.66	
67.01	103	-0.66	
66.99	104	-0.66	
66.98	104	-0.66	
66.97	105	-0.66	
66.96	106	-0.66	
66.94	106	-0.65	
66.93	107	-0.65	
66.92	108	-0.65	
66.91	109	-0.65	
66.89	109	-0.64	
66.88	110	-0.64	
66.87	111	-0.64	
66.86	111	-0.64	
66.84	112	-0.63	
66.83	113	-0.63	
66.82	113	-0.63	
66.81	114	-0.63	
66.79	115	-0.62	
66.78	116	-0.62	
66.77	116	-0.62	
66.76	117	-0.62	
66.74	118	-0.62	
66.73	118	-0.61	
66.72	119	-0.61	
66.70	120	-0.61	
66.69	120	-0.61	
66.68	121	-0.61	
66.67	122	-0.60	
66.65	123	-0.60	
66.64	123	-0.60	
66.63	124	-0.60	
66.61	125	-0.59	
66.60	125	-0.59	
66.59	126	-0.59	
66.58	127	-0.59	
66.56	127	-0.58	
66.55	128	-0.58	
66.54	129	-0.58	
66.52	130	-0.58	
66.51	130	-0.58	
66.50	131	-0.57	
66.48	132	-0.57	
66.47	132	-0.57	
66.46	133	-0.57	
66.44	134	-0.57	
66.43	134	-0.56	
66.42	135	-0.56	
66.40	136	-0.56	
66.39	137	-0.56	
66.38	137	-0.56	
66.37	138	-0.55	
66.35	139	-0.55	
66.34	139	-0.55	
66.33	140	-0.55	
66.31	141	-0.54	
66.30	141	-0.54	
66.29	142	-0.54	
66.27	143	-0.54	
66.26	144	-0.54	
66.25	144	-0.54	
66.23	145	-0.53	
66.22	146	-0.53	
66.21	146	-0.53	
66.19	147	-0.53	
66.18	148	-0.52	
66.17	148	-0.52	
66.15	149	-0.52	
66.14	150	-0.52	
66.13	151	-0.51	
66.11	151	-0.51	
66.10	152	-0.51	
66.08	153	-0.51	
66.07	153	-0.51	
66.06	154	-0.51	
66.04	155	-0.50	
66.03	155	-0.50	
66.02	156	-0.50	
66.00	157	-0.50	
65.99	158	-0.49	
65.98	158	-0.49	
65.96	159	-0.49	
65.95	160	-0.49	
65.94	160	-0.48	
65.92	161	-0.48	
65.91	162	-0.48	
65.90	162	-0.48	
65.90	163	-0.47	
65.90	164	-0.47	
65.91	165	-0.47	
65.91	165	-0.46	
65.91	166	-0.46	
65.91	167	-0.46	
65.90	167	-0.46	
65.90	168	-0.46	
65.90	169	-0.45	
65.89	169	-0.45	
65.88	170	-0.45	
65.87	171	-0.44	
65.86	172	-0.44	
65.84	172	-0.44	
65.83	173	-0.44	
65.81	174	-0.43	
65.80	174	-0.43	
65.78	175	-0.43	
65.76	176	-0.42	
65.74	176	-0.42	
65.73	177	-0.42	
65.71	178	-0.42	
65.69	179	-0.41	
65.68	179	-0.41	
65.66	180	-0.41	
65.65	181	-0.40	
65.63	181	-0.40	
65.62	182	-0.40	
65.61	183	-0.39	
65.59	183	-0.39	
65.58	184	-0.39	
65.57	185	-0.38	
65.56	186	-0.38	
65.55	186	-0.38	
65.54	187	-0.38	
65.53	188	-0.37	
65.52	188	-0.37	
65.51	189	-0.37	
65.49	190	-0.36	
65.48	190	-0.36	
65.47	191	-0.35	
65.46	192	-0.35	
65.45	193	-0.35	
65.43	193	-0.35	
65.42	194	-0.34	
65.41	195	-0.34	
65.39	195	-0.34	
65.38	196	-0.33	
65.37	197	-0.33	
65.35	197	-0.33	
65.34	198	-0.32	
65.32	199	-0.32	
65.31	200	-0.32	
65.29	200	-0.31	
65.28	201	-0.31	
65.26	202	-0.31	
65.25	202	-0.31	
65.24	203	-0.30	
65.22	204	-0.30	
65.21	204	-0.29	
65.19	205	-0.29	
65.18	206	-0.29	
65.17	207	-0.28	
65.15	207	-0.28	
65.14	208	-0.28	
65.13	209	-0.27	
65.11	209	-0.27	
65.10	210	-0.27	
65.09	211	-0.26	
65.07	211	-0.26	
65.06	212	-0.26	
65.05	213	-0.25	
65.03	214	-0.25	
65.02	214	-0.24	
65.00	215	-0.24	
64.99	216	-0.24	
64.98	216	-0.23	
64.96	217	-0.23	
64.95	218	-0.23	
64.93	218	-0.22	
64.92	219	-0.22	
64.91	220	-0.22	
64.89	221	-0.21	
64.88	221	-0.21	
64.86	222	-0.21	
64.85	223	-0.21	
64.84	223	-0.20	
64.82	224	-0.20	
64.81	225	-0.19	
64.79	225	-0.19	
64.78	226	-0.19	
64.76	227	-0.18	
64.75	228	-0.18	
64.74	228	-0.18	
64.72	229	-0.17	
64.71	230	-0.17	
64.69	230	-0.17	
64.68	231	-0.16	
64.66	232	-0.16	
64.65	232	-0.15	
64.64	233	-0.15	
64.62	234	-0.15	
64.61	235	-0.14	
64.59	235	-0.14	
64.58	236	-0.14	
64.57	237	-0.13	
64.55	237	-0.13	
64.54	238	-0.13	
64.52	239	-0.13	
64.51	239	-0.12	
64.49	240	-0.12	
64.48	241	-0.12	
64.47	242	-0.12	
64.45	242	-0.11	
64.44	243	-0.11	
64.42	244	-0.11	
64.41	244	-0.11	
64.39	245	-0.10	
64.38	246	-0.10	
64.36	246	-0.10	
64.35	247	-0.10	
64.34	248	-0.09	
64.32	249	-0.09	
64.31	249	-0.09	
64.29	250	-0.09	
64.28	251	-0.08	
64.26	251	-0.08	
64.25	252	-0.08	
64.23	253	-0.08	
64.22	253	-0.07	
64.21	254	-0.07	
64.19	255	-0.07	
64.18	256	-0.07	
64.16	256	-0.06	
64.15	257	-0.06	
64.13	258	-0.06	
64.12	258	-0.06	
64.11	259	-0.05	
64.09	260	-0.05	
64.08	260	-0.05	
64.06	261	-0.04	
64.05	262	-0.04	
64.03	263	-0.04	
64.02	263	-0.03	
64.00	264	-0.03	
63.99	265	-0.03	
63.97	265	-0.03	
63.96	266	-0.02	
63.95	267	-0.02	
63.93	267	-0.02	
63.92	268	-0.02	
63.90	269	-0.01	
63.89	270	-0.01	
63.87	270	-0.01	
63.86	271	-0.00	
63.84	272	-0.00	
63.83	272	-0.00	
63.81	273	0.00	
63.80	274	0.00	
63.79	274	0.00	
63.77	275	0.01	
63.76	276	0.01	
63.74	277	0.01	
63.73	277	0.01	
63.71	278	0.01	
63.70	279	0.02	
63.68	279	0.02	
63.67	280	0.02	
63.65	281	0.02	
63.64	281	0.03	
63.63	282	0.03	
63.61	283	0.03	
63.60	284	0.03	
63.58	284	0.04	
63.57	285	0.04	
63.55	286	0.04	
63.54	286	0.04	
63.52	287	0.04	
63.51	288	0.05	
63.50	288	0.05	
63.48	289	0.05	
63.47	290	0.05	
63.45	291	0.05	
63.44	291	0.05	
63.42	292	0.06	
63.41	293	0.06	
63.39	293	0.06	
63.38	294	0.06	
63.36	295	0.06	
63.35	295	0.07	
63.34	296	0.07	
63.32	297	0.07	
63.31	298	0.07	
63.29	298	0.07	
63.28	299	0.07	
63.26	300	0.08	
63.25	300	0.08	
63.23	301	0.08	
63.22	302	0.08	
63.20	302	0.08	
63.19	303	0.09	
63.17	304	0.09	
63.16	305	0.09	
63.15	305	0.09	
63.13	306	0.09	
63.12	307	0.10	
63.10	307	0.10	
63.09	308	0.10	
63.07	309	0.10	
63.06	309	0.10	
63.04	310	0.10	
63.03	311	0.10	
63.02	312	0.11	
63.00	312	0.11	
62.99	313	0.11	
62.97	314	0.11	
62.96	314	0.11	
62.94	315	0.12	
62.93	316	0.12	
62.91	316	0.12	
62.90	317	0.12	
62.88	318	0.12	
62.87	319	0.12	
62.86	319	0.12	
62.84	320	0.13	
62.83	321	0.13	
62.81	321	0.13	
62.80	322	0.13	
62.78	323	0.13	
62.77	323	0.13	
62.75	324	0.13	
62.74	325	0.14	
62.72	326	0.14	
62.71	326	0.14	
62.69	327	0.14	
62.68	328	0.14	
62.67	328	0.14	
62.65	329	0.15	
62.64	330	0.15	
62.62	330	0.15	
62.61	331	0.15	
62.59	332	0.15	
62.58	333	0.15	
62.56	333	0.15	
62.55	334	0.15	
62.54	335	0.15	
62.52	335	0.16	
62.51	336	0.16	
62.49	337	0.16	
62.48	337	0.16	
62.46	338	0.16	
62.45	339	0.16	
62.43	340	0.16	
62.42	340	0.17	
62.40	341	0.17	
62.39	342	0.17	
62.38	342	0.17	
62.36	343	0.17	
62.35	344	0.17	
62.33	344	0.17	
62.32	345	0.17	
62.30	346	0.18	
62.29	347	0.18	
62.27	347	0.18	
62.26	348	0.18	
62.24	349	0.18	
62.23	349	0.18	
62.22	350	0.18	
62.20	351	0.18	
62.19	351	0.18	
62.17	352	0.19	
62.16	353	0.19	
62.14	354	0.19	
62.13	354	0.19	
62.11	355	0.19	
62.10	356	0.19	
62.09	356	0.19	
62.07	357	0.19	
62.06	358	0.19	
62.04	358	0.19	
62.03	359	0.19	
62.01	360	0.20	
62.00	361	0.20	
61.98	361	0.20	
61.97	362	0.20	
61.95	363	0.20	
61.94	363	0.20	
61.92	364	0.20	
61.91	365	0.20	
61.90	365	0.21	
61.88	366	0.21	
61.87	367	0.21	
61.85	368	0.21	
61.84	368	0.21	
61.82	369	0.21	
61.81	370	0.21	
61.80	370	0.21	
61.78	371	0.21	
61.77	372	0.21	
61.75	372	0.22	
61.74	373	0.22	
61.72	374	0.22	
61.71	375	0.22	
61.69	375	0.22	
61.68	376	0.22	
61.67	377	0.22	
61.65	377	0.22	
61.64	378	0.22	
61.62	379	0.22	
61.61	379	0.22	
61.59	380	0.22	
61.58	381	0.22	
61.56	382	0.22	
61.55	382	0.22	
61.53	383	0.23	
61.52	384	0.23	
61.50	384	0.23	
61.49	385	0.23	
61.48	386	0.23	
61.46	386	0.23	
61.45	387	0.23	
61.43	388	0.23	
61.42	389	0.23	
61.40	389	0.24	
61.39	390	0.24	
61.38	391	0.24	
61.36	391	0.24	
61.35	392	0.24	
61.33	393	0.24	
61.32	393	0.24	
61.30	394	0.24	
61.29	395	0.24	
61.28	396	0.24	
61.26	396	0.24	
61.25	397	0.24	
61.23	398	0.24	
61.22	398	0.24	
61.20	399	0.24	
61.19	400	0.24	
61.17	400	0.24	
61.16	401	0.24	
61.14	402	0.25	
61.13	403	0.25	
61.12	403	0.25	
61.10	404	0.25	
61.09	405	0.25	
61.07	405	0.25	
61.06	406	0.25	
61.04	407	0.25	
61.03	407	0.25	
61.01	408	0.25	
61.00	409	0.25	
60.99	410	0.25	
60.97	410	0.25	
60.96	411	0.25	
60.94	412	0.25	
60.93	412	0.25	
60.91	413	0.26	
60.90	414	0.26	
60.88	414	0.26	
60.87	415	0.26	
60.86	416	0.26	
60.84	417	0.26	
60.83	417	0.26	
60.81	418	0.26	
60.80	419	0.26	
60.78	419	0.26	
60.77	420	0.26	
60.75	421	0.26	
60.74	421	0.26	
60.73	422	0.26	
60.71	423	0.26	
60.70	424	0.26	
60.68	424	0.26	
60.67	425	0.26	
60.65	426	0.26	
60.64	426	0.26	
60.62	427	0.26	
60.61	428	0.26	
60.60	428	0.26	
60.58	429	0.26	
60.57	430	0.27	
60.55	431	0.27	
60.54	431	0.27	
60.52	432	0.27	
60.51	433	0.27	
60.50	433	0.27	
60.48	434	0.27	
60.47	435	0.27	
60.45	435	0.27	
60.44	436	0.27	
60.42	437	0.27	
60.41	438	0.27	
60.39	438	0.27	
60.38	439	0.27	
60.37	440	0.27	
60.35	440	0.27	
60.34	441	0.28	
60.32	442	0.28	
60.31	442	0.28	
60.29	443	0.28	
60.28	444	0.28	
60.27	445	0.28	
60.25	445	0.28	
60.24	446	0.27	
60.22	447	0.27	
60.21	447	0.27	
60.19	448	0.27	
60.18	449	0.28	
60.16	449	0.28	
60.15	450	0.28	
60.14	451	0.28	
60.12	452	0.28	
60.11	452	0.28	
60.09	453	0.28	
60.08	454	0.28	
60.06	454	0.28	
60.05	455	0.28	
60.03	456	0.28	
60.02	456	0.28	
60.01	457	0.28	
59.99	458	0.28	
59.98	459	0.28	
59.96	459	0.28	
59.95	460	0.29	
59.93	461	0.29	
59.92	461	0.29	
59.91	462	0.29	
59.89	463	0.29	
59.88	463	0.29	
59.86	464	0.29	
59.85	465	0.29	
59.83	466	0.29	
59.82	466	0.29	
59.81	467	0.29	
59.79	468	0.29	
59.78	468	0.29	
59.76	469	0.29	
59.75	470	0.29	
59.73	470	0.29	
59.72	471	0.29	
59.71	472	0.29	
59.69	473	0.29	
59.68	473	0.29	
59.66	474	0.29	
59.65	475	0.30	
59.63	475	0.30	
59.62	476	0.30	
59.60	477	0.30	
59.59	477	0.30	
59.58	478	0.30	
59.56	479	0.30	
59.55	480	0.30	
59.53	480	0.30	
59.52	481	0.30	
59.50	482	0.30	
59.49	482	0.30	
59.48	483	0.30	
59.46	484	0.30	
59.45	484	0.30	
59.43	485	0.30	
59.42	486	0.30	
59.40	487	0.30	
59.39	487	0.30	
59.38	488	0.30	
59.36	489	0.30	
59.35	489	0.30	
59.33	490	0.30	
59.32	491	0.30	
59.30	491	0.30	
59.29	492	0.30	
59.27	493	0.30	
59.26	494	0.30	
59.25	494	0.30	
59.23	495	0.30	
59.22	496	0.30	
59.20	496	0.30	
59.19	497	0.30	
59.17	498	0.30	
59.16	498	0.30	
59.15	499	0.30	
59.13	500	0.30	
59.12	501	0.30	
59.10	501	0.30	
59.09	502	0.30	
59.07	503	0.30	
59.06	503	0.30	
59.05	504	0.30	
59.03	505	0.30	
59.02	505	0.30	
59.00	506	0.30	
58.99	507	0.30	
58.97	508	0.30	
58.96	508	0.30	
58.95	509	0.30	
58.93	510	0.31	
58.92	510	0.31	
58.90	511	0.31	
58.89	512	0.31	
58.87	512	0.31	
58.86	513	0.31	
58.85	514	0.31	
58.83	515	0.31	
58.82	515	0.31	
58.80	516	0.31	
58.79	517	0.31	
58.77	517	0.31	
58.76	518	0.31	
58.75	519	0.31	
58.73	519	0.31	
58.72	520	0.31	
58.70	521	0.31	
58.69	522	0.31	
58.67	522	0.31	
58.66	523	0.31	
58.64	524	0.31	
58.63	524	0.31	
58.62	525	0.31	
58.60	526	0.31	
58.59	526	0.31	
58.57	527	0.31	
58.56	528	0.31	
58.54	529	0.31	
58.53	529	0.31	
58.52	530	0.31	
58.50	531	0.31	
58.49	531	0.31	
58.47	532	0.31	
58.46	533	0.31	
58.45	533	0.31	
58.43	534	0.31	
58.42	535	0.31	
58.40	536	0.31	
58.39	536	0.31	
58.37	537	0.31	
58.36	538	0.31	
58.35	538	0.31	
58.33	539	0.31	
58.32	540	0.31	
58.30	540	0.31	
58.29	541	0.31	
58.27	542	0.31	
58.26	543	0.31	
58.24	543	0.31	
58.23	544	0.31	
58.22	545	0.31	
58.20	545	0.31	
58.19	546	0.31	
58.17	547	0.31	
58.16	547	0.31	
58.14	548	0.31	
58.13	549	0.31	
58.12	550	0.31	
58.10	550	0.31	
58.09	551	0.31	
58.07	552	0.31	
58.06	552	0.31	
58.05	553	0.31	
58.03	554	0.31	
58.02	554	0.31	
58.00	555	0.31	
57.99	556	0.31	
57.97	557	0.31	
57.96	557	0.31	
57.94	558	0.31	
57.93	559	0.31	
57.92	559	0.31	
57.90	560	0.31	
57.89	561	0.31	
57.87	561	0.31	
57.86	562	0.31	
57.84	563	0.31	
57.83	564	0.31	
57.82	564	0.31	
57.80	565	0.31	
57.79	566	0.31	
57.77	566	0.31	
57.76	567	0.31	
57.75	568	0.31	
57.73	568	0.31	
57.72	569	0.31	
57.70	570	0.31	
57.69	571	0.31	
57.67	571	0.31	
57.66	572	0.31	
57.65	573	0.31	
57.63	573	0.31	
57.62	574	0.31	
57.60	575	0.31	
57.59	575	0.31	
57.57	576	0.31	
57.56	577	0.31	
57.55	578	0.31	
57.53	578	0.31	
57.52	579	0.31	
57.50	580	0.31	
57.49	580	0.31	
57.47	581	0.31	
57.46	582	0.31	
57.45	582	0.31	
57.43	583	0.31	
57.42	584	0.31	
57.40	585	0.31	
57.39	585	0.31	
57.37	586	0.31	
57.36	587	0.31	
57.35	587	0.31	
57.33	588	0.31	
57.32	589	0.31	
57.30	589	0.31	
57.29	590	0.32	
57.28	591	0.32	
57.26	592	0.32	
57.25	592	0.32	
57.23	593	0.32	
57.22	594	0.32	
57.20	594	0.32	
57.19	595	0.32	
57.17	596	0.32	
57.16	596	0.32	
57.15	597	0.32	
57.13	598	0.32	
57.12	599	0.32	
57.10	599	0.31	
57.09	600	0.31	
57.08	601	0.31	
57.06	601	0.31	
57.05	602	0.31	
57.03	603	0.31	
57.02	603	0.31	
57.00	604	0.31	
56.99	605	0.31	
56.98	606	0.31	
56.96	606	0.31	
56.95	607	0.31	
56.93	608	0.31	
56.92	608	0.31	
56.90	609	0.31	
56.89	610	0.31	
56.88	610	0.31	
56.86	611	0.31	
56.85	612	0.31	
56.83	613	0.31	
56.82	613	0.31	
56.81	614	0.31	
56.79	615	0.31	
56.78	615	0.31	
56.76	616	0.31	
56.75	617	0.31	
56.73	617	0.31	
56.72	618	0.31	
56.71	619	0.31	
56.69	620	0.31	
56.68	620	0.31	
56.66	621	0.31	
56.65	622	0.31	
56.63	622	0.32	
56.62	623	0.32	
56.60	624	0.32	
56.59	624	0.32	
56.58	625	0.32	
56.56	626	0.32	
56.55	627	0.32	
56.53	627	0.32	
56.52	628	0.32	
56.51	629	0.32	
56.49	629	0.32	
56.48	630	0.32	
56.46	631	0.32	
56.45	631	0.32	
56.43	632	0.32	
56.42	633	0.32	
56.41	634	0.32	
56.39	634	0.32	
56.38	635	0.32	
56.36	636	0.32	
56.35	636	0.32	
56.34	637	0.32	
56.32	638	0.31	
56.31	638	0.31	
56.29	639	0.31	
56.28	640	0.31	
56.26	641	0.31	
56.25	641	0.31	
56.24	642	0.31	
56.22	643	0.31	
56.21	643	0.31	
56.19	644	0.31	
56.18	645	0.31	
56.16	645	0.31	
56.15	646	0.31	
56.14	647	0.31	
56.12	648	0.31	
56.11	648	0.31	
56.09	649	0.31	
56.08	650	0.31	
56.06	650	0.31	
56.05	651	0.32	
56.04	652	0.32	
56.02	652	0.32	
56.01	653	0.32	
55.99	654	0.32	
55.98	655	0.32	
55.97	655	0.32	
55.95	656	0.32	
55.94	657	0.32	
55.92	657	0.32	
55.91	658	0.32	
55.89	659	0.32	
55.88	659	0.32	
55.87	660	0.32	
55.85	661	0.32	
55.84	662	0.32	
55.82	662	0.32	
55.81	663	0.32	
55.79	664	0.32	
55.78	664	0.32	
55.77	665	0.32	
55.75	666	0.32	
55.74	666	0.32	
55.72	667	0.32	
55.71	668	0.32	
55.69	669	0.32	
55.68	669	0.32	
55.67	670	0.32	
55.65	671	0.32	
55.64	671	0.32	
55.62	672	0.31	
55.61	673	0.31	
55.60	673	0.31	
55.58	674	0.31	
55.57	675	0.31	
55.55	676	0.31	
55.54	676	0.31	
55.53	677	0.31	
55.51	678	0.31	
55.50	678	0.31	
55.48	679	0.31	
55.47	680	0.31	
55.45	680	0.31	
55.44	681	0.31	
55.42	682	0.31	
55.41	683	0.31	
55.40	683	0.31	
55.38	684	0.31	
55.37	685	0.31	
55.35	685	0.31	
55.34	686	0.31	
55.33	687	0.31	
55.31	687	0.31	
55.30	688	0.31	
55.28	689	0.31	
55.27	690	0.31	
55.25	690	0.31	
55.24	691	0.31	
55.23	692	0.31	
55.21	692	0.31	
55.20	693	0.31	
55.18	694	0.31	
55.17	694	0.31	
55.15	695	0.31	
55.14	696	0.31	
55.13	697	0.31	
55.11	697	0.31	
55.10	698	0.31	
55.08	699	0.31	
55.07	699	0.31	
55.06	700	0.31	
55.04	701	0.31	
55.03	701	0.31	
55.01	702	0.31	
55.00	703	0.31	
54.98	704	0.31	
54.97	704	0.31	
54.96	705	0.31	
54.94	706	0.31	
54.93	706	0.31	
54.91	707	0.31	
54.90	708	0.31	
54.89	708	0.31	
54.87	709	0.31	
54.86	710	0.31	
54.84	711	0.31	
54.83	711	0.31	
54.81	712	0.31	
54.80	713	0.31	
54.78	713	0.31	
54.77	714	0.31	
54.76	715	0.31	
54.74	715	0.31	
54.73	716	0.31	
54.71	717	0.31	
54.70	718	0.31	
54.69	718	0.31	
54.67	719	0.31	
54.66	720	0.31	
54.64	720	0.31	
54.63	721	0.31	
54.62	722	0.31	
54.60	722	0.31	
54.59	723	0.31	
54.57	724	0.31	
54.56	725	0.31	
54.54	725	0.31	
54.53	726	0.31	
54.52	727	0.31	
54.50	727	0.31	
54.49	728	0.31	
54.47	729	0.31	
54.46	729	0.31	
54.44	730	0.31	
54.43	731	0.31	
54.42	732	0.31	
54.40	732	0.31	
54.39	733	0.31	
54.37	734	0.31	
54.36	734	0.31	
54.34	735	0.31	
54.33	736	0.31	
54.32	736	0.31	
54.30	737	0.31	
54.29	738	0.31	
54.27	739	0.31	
54.26	739	0.31	
54.25	740	0.31	
54.23	741	0.31	
54.22	741	0.31	
54.20	742	0.31	
54.19	743	0.31	
54.18	743	0.31	
54.16	744	0.31	
54.15	745	0.31	
54.13	746	0.30	
54.12	746	0.30	
54.10	747	0.30	
54.09	748	0.30	
54.08	748	0.30	
54.06	749	0.30	
54.05	750	0.30	
54.03	750	0.30	
54.02	751	0.30	
54.01	752	0.31	
53.99	753	0.31	
53.98	753	0.31	
53.96	754	0.31	
53.95	755	0.31	
53.93	755	0.31	
53.92	756	0.31	
53.91	757	0.31	
53.89	757	0.31	
53.88	758	0.31	
53.86	759	0.31	
53.85	760	0.31	
53.83	760	0.31	
53.82	761	0.31	
53.81	762	0.31	
53.79	762	0.31	
53.78	763	0.31	
53.76	764	0.31	
53.75	764	0.31	
53.74	765	0.31	
53.72	766	0.31	
53.71	767	0.31	
53.69	767	0.31	
53.68	768	0.31	
53.66	769	0.31	
53.65	769	0.31	
53.64	770	0.31	
53.62	771	0.31	
53.61	771	0.31	
53.59	772	0.31	
53.58	773	0.31	
53.57	774	0.31	
53.55	774	0.31	
53.54	775	0.31	
53.52	776	0.31	
53.51	776	0.31	
53.49	777	0.31	
53.48	778	0.31	
53.47	778	0.31	
53.45	779	0.31	
53.44	780	0.31	
53.42	781	0.31	
53.41	781	0.30	
53.39	782	0.30	
53.38	783	0.30	
53.37	783	0.30	
53.35	784	0.30	
53.34	785	0.30	
53.32	785	0.30	
53.31	786	0.30	
53.30	787	0.30	
53.28	788	0.30	
53.27	788	0.30	
53.25	789	0.30	
53.24	790	0.30	
53.22	790	0.30	
53.21	791	0.30	
53.20	792	0.30	
53.18	792	0.30	
53.17	793	0.30	
53.15	794	0.30	
53.14	795	0.30	
53.13	795	0.30	
53.11	796	0.30	
53.10	797	0.30	
53.08	797	0.30	
53.07	798	0.30	
53.05	799	0.30	
53.04	799	0.30	
53.03	800	0.30	
53.01	801	0.30	
53.00	802	0.30	
52.98	802	0.30	
52.97	803	0.30	
52.95	804	0.30	
52.94	804	0.30	
52.93	805	0.30	
52.91	806	0.30	
52.90	806	0.30	
52.88	807	0.30	
52.87	808	0.30	
52.86	809	0.30	
52.84	809	0.30	
52.83	810	0.30	
52.81	811	0.30	
52.80	811	0.30	
52.78	812	0.30	
52.77	813	0.30	
52.76	813	0.30	
52.74	814	0.30	
52.73	815	0.30	
52.71	816	0.30	
52.70	816	0.30	
52.69	817	0.30	
52.67	818	0.30	
52.66	818	0.30	
52.64	819	0.30	
52.63	820	0.30	
52.61	820	0.30	
52.60	821	0.30	
52.59	822	0.30	
52.57	823	0.30	
52.56	823	0.30	
52.54	824	0.30	
52.53	825	0.30	
52.52	825	0.30	
52.50	826	0.30	
52.49	827	0.30	
52.47	827	0.30	
52.46	828	0.30	
52.44	829	0.30	
52.43	830	0.30	
52.42	830	0.30	
52.40	831	0.30	
52.39	832	0.30	
52.37	832	0.30	
52.36	833	0.30	
52.35	834	0.30	
52.33	834	0.30	
52.32	835	0.30	
52.30	836	0.30	
52.29	837	0.30	
52.27	837	0.29	
52.26	838	0.29	
52.25	839	0.29	
52.23	839	0.29	
52.22	840	0.29	
52.20	841	0.29	
52.19	841	0.29	
52.17	842	0.29	
52.16	843	0.29	
52.15	844	0.29	
52.13	844	0.29	
52.12	845	0.29	
52.10	846	0.29	
52.09	846	0.29	
52.08	847	0.29	
52.06	848	0.30	
52.05	848	0.30	
52.03	849	0.30	
52.02	850	0.29	
52.00	851	0.29	
51.99	851	0.29	
51.98	852	0.29	
51.96	853	0.29	
51.95	853	0.29	
51.93	854	0.29	
51.92	855	0.29	
51.91	855	0.29	
51.89	856	0.29	
51.88	857	0.29	
51.86	858	0.29	
51.85	858	0.29	
51.83	859	0.29	
51.82	860	0.29	
51.81	860	0.29	
51.79	861	0.29	
51.78	862	0.29	
51.76	862	0.29	
51.75	863	0.29	
51.74	864	0.29	
51.72	865	0.29	
51.71	865	0.29	
51.69	866	0.29	
51.68	867	0.29	
51.66	867	0.29	
51.65	868	0.29	
51.64	869	0.29	
51.62	869	0.29	
51.61	870	0.29	
51.59	871	0.29	
51.58	872	0.29	
51.57	872	0.29	
51.55	873	0.29	
51.54	874	0.29	
51.52	874	0.29	
51.51	875	0.29	
51.49	876	0.30	
51.48	876	0.30	
51.47	877	0.30	
51.45	878	0.30	
51.44	879	0.30	
51.42	879	0.30	
51.41	880	0.30	
51.40	881	0.30	
51.38	881	0.29	
51.37	882	0.29	
51.35	883	0.29	
51.34	883	0.29	
51.32	884	0.29	
51.31	885	0.29	
51.30	886	0.29	
51.28	886	0.29	
51.27	887	0.29	
51.25	888	0.29	
51.24	888	0.29	
51.22	889	0.29	
51.21	890	0.29	
51.20	890	0.29	
51.18	891	0.29	
51.17	892	0.29	
51.15	893	0.29	
51.14	893	0.29	
51.13	894	0.29	
51.11	895	0.29	
51.10	895	0.29	
51.08	896	0.30	
51.07	897	0.30	
51.05	897	0.30	
51.04	898	0.30	
51.03	899	0.29	
51.01	900	0.29	
51.00	900	0.29	
50.98	901	0.29	
50.97	902	0.29	
50.96	902	0.29	
50.94	903	0.29	
50.93	904	0.29	
50.91	904	0.29	
50.90	905	0.29	
50.88	906	0.29	
50.87	907	0.29	
50.86	907	0.29	
50.84	908	0.29	
50.83	909	0.29	
50.81	909	0.29	
50.80	910	0.29	
50.79	911	0.29	
50.77	911	0.29	
50.76	912	0.29	
50.74	913	0.29	
50.73	914	0.29	
50.71	914	0.29	
50.70	915	0.29	
50.69	916	0.29	
50.67	916	0.29	
50.66	917	0.29	
50.64	918	0.29	
50.63	918	0.29	
50.62	919	0.29	
50.60	920	0.29	
50.59	921	0.29	
50.57	921	0.29	
50.56	922	0.29	
50.54	923	0.29	
50.53	923	0.29	
50.52	924	0.29	
50.50	925	0.29	
50.49	925	0.29	
50.47	926	0.29	
50.46	927	0.29	
50.45	928	0.29	
50.43	928	0.29	
50.42	929	0.29	
50.40	930	0.29	
50.39	930	0.29	
50.37	931	0.29	
50.36	932	0.29	
50.35	932	0.29	
50.33	933	0.29	
50.32	934	0.29	
50.30	935	0.29	
50.29	935	0.29	
50.28	936	0.29	
50.26	937	0.29	
50.25	937	0.29	
50.23	938	0.29	
50.22	939	0.29	
50.20	939	0.29	
50.19	940	0.29	
50.18	941	0.29	
50.16	942	0.29	
50.15	942	0.29	
50.13	943	0.29	
50.12	944	0.29	
50.10	944	0.29	
50.09	945	0.29	
50.08	946	0.29	
50.06	946	0.29	
50.05	947	0.29	
50.03	948	0.29	
50.02	949	0.29	
50.01	949	0.29	
49.99	950	0.29	
49.98	951	0.29	
49.96	951	0.29	
49.95	952	0.29	
49.94	953	0.29	
49.92	953	0.29	
49.91	954	0.29	
49.89	955	0.29	
49.88	956	0.29	
49.86	956	0.29	
49.85	957	0.28	
49.84	958	0.28	
49.82	958	0.28	
49.81	959	0.28	
49.79	960	0.28	
49.78	960	0.28	
49.77	961	0.28	
49.75	962	0.28	
49.74	963	0.29	
49.72	963	0.29	
49.71	964	0.29	
49.69	965	0.29	
49.68	965	0.29	
49.67	966	0.29	
49.65	967	0.29	
49.64	967	0.29	
49.62	968	0.29	
49.61	969	0.29	
49.60	970	0.29	
49.58	970	0.28	
49.57	971	0.28	
49.55	972	0.28	
49.54	972	0.28	
49.52	973	0.28	
49.51	974	0.28	
49.50	974	0.28	
49.48	975	0.28	
49.47	976	0.28	
49.45	977	0.28	
49.44	977	0.28	
49.42	978	0.28	
49.41	979	0.28	
49.40	979	0.28	
49.38	980	0.28	
49.37	981	0.28	
49.35	981	0.28	
49.34	982	0.28	
49.33	983	0.28	
49.31	984	0.28	
49.30	984	0.28	
49.28	985	0.28	
49.27	986	0.28	
49.25	986	0.28	
49.24	987	0.28	
49.23	988	0.28	
49.21	988	0.28	
49.20	989	0.28	
49.18	990	0.28	
49.17	991	0.28	
49.16	991	0.28	
49.14	992	0.28	
49.13	993	0.28	
49.11	993	0.28	
49.10	994	0.28	
49.08	995	0.28	
49.07	995	0.28	
49.06	996	0.28	
49.04	997	0.28	
49.03	998	0.28	
49.01	998	0.28	
49.00	999	0.28	
48.98	1000	0.28	
48.97	1000	0.28	
48.96	1001	0.28	
48.94	1002	0.28	
48.93	1002	0.28	
48.91	1003	0.28	
48.90	1004	0.28	
48.89	1005	0.28	
48.87	1005	0.28	
48.86	1006	0.28	
48.84	1007	0.28	
48.83	1007	0.28	
48.82	1008	0.28	
48.80	1009	0.28	
48.79	1009	0.28	
48.77	1010	0.28	
48.76	1011	0.28	
48.74	1012	0.28	
48.73	1012	0.28	
48.72	1013	0.28	
48.70	1014	0.28	
48.69	1014	0.28	
48.67	1015	0.28	
48.66	1016	0.28	
48.64	1016	0.28	
48.63	1017	0.28	
48.62	1018	0.28	
48.60	1019	0.28	
48.59	1019	0.28	
48.57	1020	0.28	
48.56	1021	0.28	
48.54	1021	0.28	
48.53	1022	0.28	
48.52	1023	0.28	
48.50	1023	0.28	
48.49	1024	0.28	
48.47	1025	0.28	
48.46	1026	0.28	
48.45	1026	0.28	
48.43	1027	0.28	
48.42	1028	0.28	
48.40	1028	0.28	
48.39	1029	0.28	
48.38	1030	0.28	
48.36	1030	0.28	
48.35	1031	0.28	
48.33	1032	0.28	
48.32	1033	0.28	
48.30	1033	0.28	
48.29	1034	0.28	
48.28	1035	0.28	
48.26	1035	0.28	
48.25	1036	0.28	
48.23	1037	0.28	
48.22	1037	0.28	
48.20	1038	0.28	
48.19	1039	0.28	
48.18	1040	0.28	
48.16	1040	0.27	
48.15	1041	0.27	
48.13	1042	0.27	
48.12	1042	0.27	
48.11	1043	0.27	
48.09	1044	0.27	
48.08	1044	0.27	
48.06	1045	0.27	
48.05	1046	0.27	
48.03	1047	0.27	
48.02	1047	0.27	
48.01	1048	0.27	
47.99	1049	0.27	
47.98	1049	0.27	
47.96	1050	0.27	
47.95	1051	0.27	
47.94	1051	0.27	
47.92	1052	0.27	
47.91	1053	0.27	
47.89	1054	0.27	
47.88	1054	0.27	
47.86	1055	0.27	
47.85	1056	0.27	
47.84	1056	0.27	
47.82	1057	0.27	
47.81	1058	0.27	
47.79	1058	0.27	
47.78	1059	0.27	
47.77	1060	0.27	
47.75	1061	0.27	
47.74	1061	0.27	
47.72	1062	0.27	
47.71	1063	0.27	
47.69	1063	0.27	
47.68	1064	0.27	
47.67	1065	0.27	
47.65	1065	0.27	
47.64	1066	0.27	
47.62	1067	0.27	
47.61	1068	0.27	
47.60	1068	0.27	
47.58	1069	0.27	
47.57	1070	0.27	
47.55	1070	0.27	
47.54	1071	0.27	
47.52	1072	0.27	
47.51	1072	0.27	
47.50	1073	0.27	
47.48	1074	0.27	
47.47	1075	0.27	
47.45	1075	0.27	
47.44	1076	0.27	
47.43	1077	0.27	
47.41	1077	0.27	
47.40	1078	0.27	
47.38	1079	0.27	
47.37	1079	0.27	
47.36	1080	0.27	
47.34	1081	0.27	
47.33	1082	0.27	
47.31	1082	0.27	
47.30	1083	0.27	
47.28	1084	0.27	
47.27	1084	0.27	
47.25	1085	0.27	
47.24	1086	0.27	
47.23	1086	0.27	
47.21	1087	0.27	
47.20	1088	0.27	
47.18	1089	0.27	
47.17	1089	0.27	
47.16	1090	0.27	
47.14	1091	0.27	
47.13	1091	0.27	
47.11	1092	0.27	
47.10	1093	0.27	
47.09	1093	0.27	
47.07	1094	0.27	
47.06	1095	0.27	
47.04	1096	0.27	
47.03	1096	0.27	
47.01	1097	0.27	
47.00	1098	0.27	
46.99	1098	0.27	
46.97	1099	0.27	
46.96	1100	0.27	
46.94	1100	0.27	
46.93	1101	0.27	
46.91	1102	0.27	
46.90	1103	0.27	
46.89	1103	0.27	
46.87	1104	0.27	
46.86	1105	0.27	
46.84	1105	0.27	
46.83	1106	0.27	
46.82	1107	0.27	
46.80	1107	0.27	
46.79	1108	0.27	
46.77	1109	0.27	
46.76	1110	0.27	
46.75	1110	0.27	
46.73	1111	0.27	
46.72	1112	0.27	
46.70	1112	0.27	
46.69	1113	0.27	
46.67	1114	0.27	
46.66	1114	0.27	
46.65	1115	0.27	
46.63	1116	0.27	
46.62	1117	0.27	
46.60	1117	0.27	
46.59	1118	0.27	
46.58	1119	0.27	
46.56	1119	0.27	
46.55	1120	0.27	
46.53	1121	0.27	
46.52	1121	0.27	
46.50	1122	0.27	
46.49	1123	0.27	
46.48	1124	0.27	
46.46	1124	0.27	
46.45	1125	0.27	
46.43	1126	0.27	
46.42	1126	0.27	
46.41	1127	0.27	
46.39	1128	0.27	
46.38	1128	0.27	
46.36	1129	0.27	
46.35	1130	0.27	
46.33	1131	0.27	
46.32	1131	0.27	
46.31	1132	0.27	
46.29	1133	0.27	
46.28	1133	0.27	
46.26	1134	0.27	
46.25	1135	0.27	
46.24	1135	0.27	
46.22	1136	0.27	
46.21	1137	0.27	
46.19	1138	0.27	
46.18	1138	0.27	
46.17	1139	0.27	
46.15	1140	0.27	
46.14	1140	0.26	
46.12	1141	0.26	
46.11	1142	0.26	
46.09	1142	0.27	
46.08	1143	0.27	
46.07	1144	0.27	
46.05	1145	0.27	
46.04	1145	0.27	
46.02	1146	0.27	
46.01	1147	0.27	
45.99	1147	0.26	
45.98	1148	0.26	
45.97	1149	0.26	
45.95	1149	0.26	
45.94	1150	0.26	
45.92	1151	0.26	
45.91	1152	0.26	
45.90	1152	0.26	
45.88	1153	0.26	
45.87	1154	0.26	
45.85	1154	0.26	
45.84	1155	0.27	
45.82	1156	0.27	
45.81	1156	0.27	
45.80	1157	0.27	
45.78	1158	0.27	
45.77	1159	0.27	
45.75	1159	0.27	
45.74	1160	0.27	
45.73	1161	0.27	
45.71	1161	0.27	
45.70	1162	0.27	
45.68	1163	0.27	
45.67	1163	0.26	
45.65	1164	0.26	
45.64	1165	0.26	
45.63	1166	0.26	
45.61	1166	0.26	
45.60	1167	0.26	
45.58	1168	0.26	
45.57	1168	0.26	
45.55	1169	0.26	
45.54	1170	0.26	
45.53	1170	0.26	
45.51	1171	0.26	
45.50	1172	0.26	
45.48	1173	0.26	
45.47	1173	0.26	
45.46	1174	0.26	
45.44	1175	0.26	
45.43	1175	0.26	
45.41	1176	0.26	
45.40	1177	0.26	
45.38	1177	0.26	
45.37	1178	0.27	
45.36	1179	0.27	
45.34	1180	0.27	
45.33	1180	0.27	
45.31	1181	0.26	
45.30	1182	0.26	
45.29	1182	0.26	
45.27	1183	0.26	
45.26	1184	0.26	
45.24	1184	0.26	
45.23	1185	0.26	
45.22	1186	0.26	
45.20	1187	0.26	
45.19	1187	0.26	
45.17	1188	0.26	
45.16	1189	0.26	
45.14	1189	0.26	
45.13	1190	0.26	
45.12	1191	0.26	
45.10	1191	0.26	
45.09	1192	0.26	
45.07	1193	0.26	
45.06	1194	0.26	
45.04	1194	0.26	
45.03	1195	0.26	
45.02	1196	0.26	
45.00	1196	0.26	
44.99	1197	0.26	
44.97	1198	0.26	
44.96	1198	0.26	
44.95	1199	0.26	
44.93	1200	0.26	
44.92	1201	0.26	
44.90	1201	0.26	
44.89	1202	0.26	
44.87	1203	0.26	
44.86	1203	0.26	
44.85	1204	0.26	
44.83	1205	0.26	
44.82	1205	0.26	
44.80	1206	0.26	
44.79	1207	0.26	
44.78	1208	0.26	
44.76	1208	0.26	
44.75	1209	0.26	
44.73	1210	0.26	
44.72	1210	0.26	
44.71	1211	0.26	
44.69	1212	0.26	
44.68	1212	0.26	
44.66	1213	0.26	
44.65	1214	0.26	
44.63	1215	0.26	
44.62	1215	0.26	
44.61	1216	0.26	
44.59	1217	0.26	
44.58	1217	0.26	
44.56	1218	0.26	
44.55	1219	0.26	
44.53	1219	0.25	
44.52	1220	0.25	
44.51	1221	0.25	
44.49	1222	0.26	
44.48	1222	0.26	
44.46	1223	0.25	
44.45	1224	0.25	
44.44	1224	0.25	
44.42	1225	0.25	
44.41	1226	0.25	
44.39	1226	0.25	
44.38	1227	0.25	
44.36	1228	0.25	
44.35	1229	0.26	
44.34	1229	0.26	
44.32	1230	0.26	
44.31	1231	0.26	
44.29	1231	0.26	
44.28	1232	0.26	
44.27	1233	0.26	
44.25	1233	0.26	
44.24	1234	0.26	
44.22	1235	0.26	
44.21	1236	0.26	
44.19	1236	0.26	
44.18	1237	0.25	
44.17	1238	0.25	
44.15	1238	0.25	
44.14	1239	0.25	
44.12	1240	0.25	
44.11	1240	0.25	
44.10	1241	0.25	
44.08	1242	0.25	
44.07	1243	0.25	
44.05	1243	0.25	
44.04	1244	0.25	
44.02	1245	0.26	
44.01	1245	0.26	
44.00	1246	0.26	
43.98	1247	0.26	
43.97	1247	0.26	
43.95	1248	0.26	
43.94	1249	0.25	
43.92	1250	0.26	
43.91	1250	0.25	
43.90	1251	0.25	
43.88	1252	0.25	
43.87	1252	0.25	
43.85	1253	0.25	
43.84	1254	0.25	
43.83	1254	0.25	
43.81	1255	0.25	
43.80	1256	0.25	
43.78	1257	0.25	
43.77	1257	0.25	
43.76	1258	0.25	
43.74	1259	0.25	
43.73	1259	0.25	
43.71	1260	0.25	
43.70	1261	0.25	
43.69	1261	0.25	
43.67	1262	0.25	
43.66	1263	0.25	
43.64	1264	0.25	
43.63	1264	0.25	
43.61	1265	0.25	
43.60	1266	0.25	
43.59	1266	0.25	
43.57	1267	0.26	
43.56	1268	0.26	
43.54	1268	0.26	
43.53	1269	0.26	
43.52	1270	0.26	
43.50	1271	0.25	
43.49	1271	0.25	
43.47	1272	0.25	
43.46	1273	0.25	
43.44	1273	0.25	
43.43	1274	0.25	
43.42	1275	0.25	
43.40	1275	0.25	
43.39	1276	0.25	
43.37	1277	0.25	
43.36	1278	0.25	
43.34	1278	0.25	
43.33	1279	0.25	
43.32	1280	0.25	
43.30	1280	0.25	
43.29	1281	0.25	
43.27	1282	0.25	
43.26	1282	0.25	
43.25	1283	0.25	
43.23	1284	0.25	
43.22	1285	0.25	
43.20	1285	0.25	
43.19	1286	0.25	
43.17	1287	0.25	
43.16	1287	0.25	
43.15	1288	0.25	
43.13	1289	0.25	
43.12	1289	0.25	
43.10	1290	0.25	
43.09	1291	0.25	
43.08	1292	0.25	
43.06	1292	0.25	
43.05	1293	0.25	
43.03	1294	0.25	
43.02	1294	0.25	
43.00	1295	0.25	
42.99	1296	0.25	
42.98	1296	0.25	
42.96	1297	0.25	
42.95	1298	0.25	
42.93	1299	0.25	
42.92	1299	0.25	
42.91	1300	0.25	
42.89	1301	0.25	
42.88	1301	0.25	
42.86	1302	0.25	
42.85	1303	0.25	
42.83	1303	0.25	
42.82	1304	0.25	
42.81	1305	0.25	
42.79	1306	0.25	
42.78	1306	0.25	
42.76	1307	0.25	
42.75	1308	0.25	
42.73	1308	0.25	
42.72	1309	0.25	
42.71	1310	0.25	
42.69	1310	0.25	
42.68	1311	0.25	
42.66	1312	0.25	
42.65	1313	0.25	
42.64	1313	0.25	
42.62	1314	0.25	
42.61	1315	0.25	
42.59	1315	0.25	
42.58	1316	0.25	
42.57	1317	0.25	
42.55	1317	0.25	
42.54	1318	0.25	
42.52	1319	0.25	
42.51	1320	0.25	
42.50	1320	0.25	
42.48	1321	0.25	
42.47	1322	0.25	
42.45	1322	0.25	
42.44	1323	0.25	
42.42	1324	0.25	
42.41	1324	0.25	
42.40	1325	0.25	
42.38	1326	0.25	
42.37	1327	0.25	
42.35	1327	0.25	
42.34	1328	0.25	
42.32	1329	0.25	
42.31	1329	0.25	
42.30	1330	0.25	
42.28	1331	0.25	
42.27	1331	0.25	
42.25	1332	0.25	
42.24	1333	0.25	
42.23	1334	0.25	
42.21	1334	0.25	
42.20	1335	0.25	
42.18	1336	0.24	
42.17	1336	0.24	
42.15	1337	0.24	
42.14	1338	0.24	
42.13	1338	0.24	
42.11	1339	0.24	
42.10	1340	0.24	
42.08	1341	0.24	
42.07	1341	0.24	
42.06	1342	0.24	
42.04	1343	0.24	
42.03	1343	0.24	
42.01	1344	0.24	
42.00	1345	0.24	
41.99	1345	0.24	
41.97	1346	0.24	
41.96	1347	0.24	
41.94	1348	0.24	
41.93	1348	0.24	
41.91	1349	0.24	
41.90	1350	0.24	
41.89	1350	0.24	
41.87	1351	0.24	
41.86	1352	0.24	
41.84	1352	0.24	
41.83	1353	0.24	
41.81	1354	0.24	
41.80	1355	0.24	
41.79	1355	0.24	
41.77	1356	0.24	
41.76	1357	0.24	
41.74	1357	0.24	
41.73	1358	0.24	
41.72	1359	0.24	
41.70	1359	0.24	
41.69	1360	0.24	
41.67	1361	0.24	
41.66	1362	0.24	
41.64	1362	0.24	
41.63	1363	0.24	
41.62	1364	0.24	
41.60	1364	0.24	
41.59	1365	0.24	
41.57	1366	0.24	
41.56	1366	0.24	
41.55	1367	0.24	
41.53	1368	0.24	
41.52	1369	0.24	
41.50	1369	0.24	
41.49	1370	0.24	
41.47	1371	0.24	
41.46	1371	0.24	
41.45	1372	0.24	
41.43	1373	0.24	
41.42	1373	0.24	
41.40	1374	0.24	
41.39	1375	0.24	
41.38	1376	0.24	
41.36	1376	0.24	
41.35	1377	0.24	
41.33	1378	0.24	
41.32	1378	0.24	
41.30	1379	0.24	
41.29	1380	0.24	
41.28	1380	0.24	
41.26	1381	0.24	
41.25	1382	0.24	
41.23	1383	0.24	
41.22	1383	0.24	
41.21	1384	0.24	
41.19	1385	0.24	
41.18	1385	0.24	
41.16	1386	0.24	
41.15	1387	0.24	
41.14	1387	0.24	
41.12	1388	0.24	
41.11	1389	0.23	
41.09	1390	0.23	
41.08	1390	0.23	
41.06	1391	0.23	
41.05	1392	0.23	
41.03	1392	0.23	
41.02	1393	0.23	
41.01	1394	0.23	
40.99	1394	0.24	
40.98	1395	0.24	
40.96	1396	0.24	
40.95	1397	0.24	
40.94	1397	0.23	
40.92	1398	0.24	
40.91	1399	0.24	
40.89	1399	0.24	
40.88	1400	0.24	
40.87	1401	0.24	
40.85	1401	0.24	
40.84	1402	0.24	
40.82	1403	0.23	
40.81	1404	0.23	
40.80	1404	0.23	
40.78	1405	0.23	
40.77	1406	0.23	
40.75	1406	0.23	
40.74	1407	0.23	
40.72	1408	0.23	
40.71	1408	0.23	
40.70	1409	0.23	
40.68	1410	0.23	
40.67	1411	0.23	
40.65	1411	0.23	
40.64	1412	0.23	
40.62	1413	0.23	
40.61	1413	0.23	
40.60	1414	0.23	
40.58	1415	0.23	
40.57	1415	0.23	
40.55	1416	0.23	
40.54	1417	0.23	
40.52	1418	0.23	
40.51	1418	0.23	
40.50	1419	0.23	
40.48	1420	0.23	
40.47	1420	0.23	
40.45	1421	0.23	
40.44	1422	0.23	
40.43	1422	0.23	
40.41	1423	0.23	
40.40	1424	0.23	
40.38	1425	0.23	
40.37	1425	0.23	
40.36	1426	0.23	
40.34	1427	0.23	
40.33	1427	0.23	
40.31	1428	0.23	
40.30	1429	0.23	
40.29	1429	0.23	
40.27	1430	0.23	
40.26	1431	0.23	
40.24	1432	0.23	
40.23	1432	0.23	
40.21	1433	0.23	
40.20	1434	0.23	
40.19	1434	0.23	
40.17	1435	0.23	
40.16	1436	0.23	
40.14	1436	0.23	
40.13	1437	0.23	
40.11	1438	0.23	
40.10	1439	0.23	
40.09	1439	0.23	
40.07	1440	0.23	
40.06	1441	0.23	
40.04	1441	0.23	
40.03	1442	0.23	
40.02	1443	0.23	
40.00	1443	0.23	
39.99	1444	0.23	
39.97	1445	0.23	
39.96	1446	0.23	
39.94	1446	0.23	
39.93	1447	0.23	
39.92	1448	0.23	
39.90	1448	0.23	
39.89	1449	0.23	
39.87	1450	0.23	
39.86	1450	0.23	
39.85	1451	0.23	
39.83	1452	0.23	
39.82	1453	0.23	
39.80	1453	0.23	
39.79	1454	0.23	
39.77	1455	0.23	
39.76	1455	0.23	
39.75	1456	0.23	
39.73	1457	0.23	
39.72	1457	0.23	
39.70	1458	0.23	
39.69	1459	0.23	
39.68	1460	0.23	
39.66	1460	0.23	
39.65	1461	0.23	
39.63	1462	0.23	
39.62	1462	0.23	
39.60	1463	0.23	
39.59	1464	0.23	
39.58	1464	0.23	
39.56	1465	0.23	
39.55	1466	0.23	
39.53	1467	0.23	
39.52	1467	0.23	
39.51	1468	0.23	
39.49	1469	0.23	
39.48	1469	0.23	
39.46	1470	0.23	
39.45	1471	0.23	
39.44	1471	0.23	
39.42	1472	0.23	
39.41	1473	0.23	
39.39	1474	0.23	
39.38	1474	0.23	
39.36	1475	0.23	
39.35	1476	0.23	
39.34	1476	0.23	
39.32	1477	0.23	
39.31	1478	0.23	
39.29	1478	0.23	
39.28	1479	0.23	
39.26	1480	0.23	
39.25	1481	0.23	
39.24	1481	0.23	
39.22	1482	0.23	
39.21	1483	0.23	
39.19	1483	0.23	
39.18	1484	0.23	
39.17	1485	0.23	
39.15	1485	0.23	
39.14	1486	0.23	
39.12	1487	0.23	
39.11	1488	0.23	
39.09	1488	0.23	
39.08	1489	0.23	
39.07	1490	0.23	
39.05	1490	0.23	
39.04	1491	0.23	
39.02	1492	0.23	
39.01	1492	0.23	
39.00	1493	0.23	
38.98	1494	0.23	
38.97	1495	0.23	
38.95	1495	0.23	
38.94	1496	0.23	
38.93	1497	0.23	
38.91	1497	0.23	
38.90	1498	0.23	
38.88	1499	0.23	
38.87	1499	0.23	
38.85	1500	0.23	
38.84	1501	0.23	
38.83	1502	0.23	
38.81	1502	0.23	
38.80	1503	0.23	
38.78	1504	0.23	
38.77	1504	0.23	
38.75	1505	0.23	
38.74	1506	0.23	
38.73	1506	0.23	
38.71	1507	0.23	
38.70	1508	0.23	
38.68	1509	0.23	
38.67	1509	0.23	
38.66	1510	0.23	
38.64	1511	0.23	
38.63	1511	0.23	
38.61	1512	0.23	
38.60	1513	0.23	
38.58	1513	0.23	
38.57	1514	0.23	
38.56	1515	0.23	
38.54	1516	0.23	
38.53	1516	0.23	
38.51	1517	0.23	
38.50	1518	0.23	
38.49	1518	0.23	
38.47	1519	0.23	
38.46	1520	0.23	
38.44	1520	0.23	
38.43	1521	0.23	
38.41	1522	0.23	
38.40	1523	0.23	
38.39	1523	0.23	
38.37	1524	0.23	
38.36	1525	0.23	
38.34	1525	0.23	
38.33	1526	0.23	
38.31	1527	0.23	
38.30	1527	0.22	
38.28	1528	0.22	
38.27	1529	0.22	
38.26	1530	0.22	
38.24	1530	0.22	
38.23	1531	0.22	
38.21	1532	0.22	
38.20	1532	0.22	
38.19	1533	0.22	
38.17	1534	0.23	
38.16	1534	0.22	
38.14	1535	0.22	
38.13	1536	0.22	
38.12	1537	0.22	
38.10	1537	0.22	
38.09	1538	0.22	
38.07	1539	0.22	
38.06	1539	0.22	
38.05	1540	0.22	
38.03	1541	0.22	
38.02	1541	0.22	
38.00	1542	0.22	
37.99	1543	0.22	
37.97	1544	0.22	
37.96	1544	0.22	
37.95	1545	0.22	
37.93	1546	0.22	
37.92	1546	0.22	
37.90	1547	0.22	
37.89	1548	0.22	
37.87	1548	0.22	
37.86	1549	0.22	
37.84	1550	0.22	
37.83	1551	0.22	
37.82	1551	0.22	
37.80	1552	0.22	
37.79	1553	0.22	
37.77	1553	0.22	
37.76	1554	0.22	
37.74	1555	0.22	
37.73	1555	0.22	
37.72	1556	0.22	
37.70	1557	0.22	
37.69	1558	0.22	
37.67	1558	0.22	
37.66	1559	0.22	
37.65	1560	0.22	
37.63	1560	0.22	
37.62	1561	0.22	
37.60	1562	0.22	
37.59	1562	0.22	
37.57	1563	0.22	
37.56	1564	0.22	
37.55	1565	0.22	
37.53	1565	0.22	
37.52	1566	0.22	
37.50	1567	0.22	
37.49	1567	0.22	
37.48	1568	0.22	
37.46	1569	0.22	
37.45	1569	0.22	
37.43	1570	0.22	
37.42	1571	0.22	
37.41	1572	0.22	
37.39	1572	0.22	
37.38	1573	0.22	
37.36	1574	0.22	
37.35	1574	0.21	
37.33	1575	0.21	
37.32	1576	0.21	
37.30	1576	0.21	
37.29	1577	0.22	
37.28	1578	0.22	
37.26	1579	0.22	
37.25	1579	0.22	
37.23	1580	0.22	
37.22	1581	0.22	
37.21	1581	0.22	
37.19	1582	0.22	
37.18	1583	0.22	
37.16	1583	0.22	
37.15	1584	0.22	
37.14	1585	0.22	
37.12	1586	0.22	
37.11	1586	0.22	
37.09	1587	0.22	
37.08	1588	0.22	
37.07	1588	0.22	
37.05	1589	0.22	
37.04	1590	0.22	
37.02	1590	0.22	
37.01	1591	0.22	
36.99	1592	0.22	
36.98	1593	0.22	
36.97	1593	0.22	
36.95	1594	0.22	
36.94	1595	0.22	
36.92	1595	0.22	
36.91	1596	0.21	
36.89	1597	0.21	
36.88	1597	0.21	
36.87	1598	0.21	
36.85	1599	0.21	
36.84	1600	0.21	
36.82	1600	0.21	
36.81	1601	0.21	
36.80	1602	0.21	
36.78	1602	0.21	
36.77	1603	0.21	
36.75	1604	0.21	
36.74	1604	0.21	
36.73	1605	0.21	
36.71	1606	0.21	
36.70	1607	0.21	
36.68	1607	0.21	
36.67	1608	0.21	
36.65	1609	0.21	
36.64	1609	0.21	
36.63	1610	0.21	
36.61	1611	0.21	
36.60	1611	0.21	
36.58	1612	0.21	
36.57	1613	0.22	
36.55	1614	0.22	
36.54	1614	0.22	
36.53	1615	0.22	
36.51	1616	0.22	
36.50	1616	0.21	
36.48	1617	0.21	
36.47	1618	0.21	
36.45	1618	0.21	
36.44	1619	0.21	
36.43	1620	0.21	
36.41	1621	0.21	
36.40	1621	0.21	
36.38	1622	0.21	
36.37	1623	0.21	
36.36	1623	0.21	
36.34	1624	0.21	
36.33	1625	0.21	
36.31	1625	0.21	
36.30	1626	0.21	
36.29	1627	0.21	
36.27	1628	0.21	
36.26	1628	0.21	
36.24	1629	0.21	
36.23	1630	0.21	
36.21	1630	0.21	
36.20	1631	0.21	
36.19	1632	0.21	
36.17	1632	0.21	
36.16	1633	0.21	
36.14	1634	0.21	
36.13	1635	0.21	
36.11	1635	0.21	
36.10	1636	0.21	
36.09	1637	0.21	
36.07	1637	0.21	
36.06	1638	0.21	
36.04	1639	0.21	
36.03	1639	0.21	
36.02	1640	0.21	
36.00	1641	0.21	
35.99	1642	0.21	
35.97	1642	0.21	
35.96	1643	0.21	
35.95	1644	0.21	
35.93	1644	0.21	
35.92	1645	0.21	
35.90	1646	0.21	
35.89	1646	0.21	
35.87	1647	0.21	
35.86	1648	0.21	
35.85	1649	0.21	
35.83	1649	0.21	
35.82	1650	0.21	
35.80	1651	0.21	
35.79	1651	0.21	
35.78	1652	0.21	
35.76	1653	0.21	
35.75	1653	0.21	
35.73	1654	0.21	
35.72	1655	0.21	
35.70	1656	0.21	
35.69	1656	0.21	
35.68	1657	0.21	
35.66	1658	0.21	
35.65	1658	0.21	
35.63	1659	0.21	
35.62	1660	0.21	
35.61	1660	0.21	
35.59	1661	0.21	
35.58	1662	0.21	
35.56	1663	0.21	
35.55	1663	0.21	
35.54	1664	0.21	
35.52	1665	0.21	
35.51	1665	0.21	
35.49	1666	0.21	
35.48	1667	0.21	
35.47	1667	0.21	
35.45	1668	0.21	
35.44	1669	0.21	
35.42	1670	0.21	
35.41	1670	0.21	
35.39	1671	0.21	
35.38	1672	0.21	
35.37	1672	0.21	
35.35	1673	0.21	
35.34	1674	0.21	
35.32	1674	0.21	
35.31	1675	0.21	
35.30	1676	0.21	
35.28	1677	0.21	
35.27	1677	0.21	
35.25	1678	0.20	
35.24	1679	0.20	
35.22	1679	0.20	
35.21	1680	0.21	
35.20	1681	0.21	
35.18	1681	0.21	
35.17	1682	0.21	
35.15	1683	0.21	
35.14	1684	0.21	
35.13	1684	0.21	
35.11	1685	0.21	
35.10	1686	0.20	
35.08	1686	0.20	
35.07	1687	0.20	
35.05	1688	0.20	
35.04	1688	0.20	
35.03	1689	0.20	
35.01	1690	0.20	
35.00	1691	0.20	
34.98	1691	0.20	
34.97	1692	0.20	
34.95	1693	0.20	
34.94	1693	0.20	
34.93	1694	0.20	
34.91	1695	0.20	
34.90	1695	0.20	
34.88	1696	0.20	
34.87	1697	0.20	
34.86	1698	0.20	
34.84	1698	0.20	
34.83	1699	0.20	
34.81	1700	0.20	
34.80	1700	0.20	
34.78	1701	0.20	
34.77	1702	0.20	
34.76	1702	0.20	
34.74	1703	0.20	
34.73	1704	0.21	
34.71	1705	0.21	
34.70	1705	0.20	
34.69	1706	0.21	
34.67	1707	0.21	
34.66	1707	0.21	
34.64	1708	0.21	
34.63	1709	0.20	
34.62	1709	0.20	
34.60	1710	0.20	
34.59	1711	0.20	
34.57	1712	0.20	
34.56	1712	0.20	
34.55	1713	0.20	
34.53	1714	0.20	
34.52	1714	0.20	
34.50	1715	0.20	
34.49	1716	0.20	
34.48	1716	0.20	
34.46	1717	0.20	
34.45	1718	0.20	
34.43	1719	0.20	
34.42	1719	0.20	
34.40	1720	0.20	
34.39	1721	0.20	
34.38	1721	0.20	
34.36	1722	0.20	
34.35	1723	0.20	
34.33	1723	0.20	
34.32	1724	0.20	
34.30	1725	0.20	
34.29	1726	0.20	
34.28	1726	0.20	
34.26	1727	0.20	
34.25	1728	0.20	
34.23	1728	0.20	
34.22	1729	0.20	
34.21	1730	0.20	
34.19	1730	0.20	
34.18	1731	0.20	
34.16	1732	0.20	
34.15	1733	0.20	
34.13	1733	0.20	
34.12	1734	0.20	
34.11	1735	0.20	
34.09	1735	0.20	
34.08	1736	0.20	
34.06	1737	0.20	
34.05	1737	0.20	
34.04	1738	0.20	
34.02	1739	0.20	
34.01	1740	0.20	
33.99	1740	0.20	
33.98	1741	0.20	
33.96	1742	0.20	
33.95	1742	0.20	
33.94	1743	0.20	
33.92	1744	0.20	
33.91	1744	0.20	
33.89	1745	0.20	
33.88	1746	0.20	
33.87	1747	0.20	
33.85	1747	0.20	
33.84	1748	0.20	
33.82	1749	0.20	
33.81	1749	0.20	
33.79	1750	0.20	
33.78	1751	0.20	
33.77	1751	0.20	
33.75	1752	0.20	
33.74	1753	0.20	
33.72	1754	0.20	
33.71	1754	0.20	
33.70	1755	0.20	
33.68	1756	0.20	
33.67	1756	0.20	
33.65	1757	0.20	
33.64	1758	0.20	
33.62	1758	0.20	
33.61	1759	0.20	
33.60	1760	0.20	
33.58	1761	0.20	
33.57	1761	0.20	
33.55	1762	0.20	
33.54	1763	0.20	
33.53	1763	0.20	
33.51	1764	0.20	
33.50	1765	0.20	
33.48	1765	0.20	
33.47	1766	0.20	
33.46	1767	0.20	
33.44	1768	0.20	
33.43	1768	0.20	
33.41	1769	0.20	
33.40	1770	0.20	
33.38	1770	0.20	
33.37	1771	0.20	
33.36	1772	0.20	
33.34	1772	0.20	
33.33	1773	0.20	
33.31	1774	0.20	
33.30	1775	0.20	
33.29	1775	0.20	
33.27	1776	0.20	
33.26	1777	0.20	
33.24	1777	0.20	
33.23	1778	0.20	
33.21	1779	0.20	
33.20	1779	0.20	
33.19	1780	0.20	
33.17	1781	0.20	
33.16	1782	0.20	
33.14	1782	0.20	
33.13	1783	0.20	
33.12	1784	0.20	
33.10	1784	0.20	
33.09	1785	0.20	
33.07	1786	0.20	
33.06	1786	0.20	
33.04	1787	0.20	
33.03	1788	0.20	
33.02	1789	0.20	
33.00	1789	0.19	
32.99	1790	0.20	
32.97	1791	0.20	
32.96	1791	0.20	
32.95	1792	0.20	
32.93	1793	0.20	
32.92	1793	0.20	
32.90	1794	0.20	
32.89	1795	0.20	
32.87	1796	0.20	
32.86	1796	0.20	
32.85	1797	0.20	
32.83	1798	0.20	
32.82	1798	0.20	
32.80	1799	0.20	
32.79	1800	0.20	
32.78	1800	0.20	
32.76	1801	0.20	
32.75	1802	0.20	
32.73	1803	0.20	
32.72	1803	0.20	
32.71	1804	0.20	
32.69	1805	0.20	
32.68	1805	0.20	
32.66	1806	0.20	
32.65	1807	0.20	
32.63	1807	0.19	
32.62	1808	0.19	
32.61	1809	0.19	
32.59	1810	0.19	
32.58	1810	0.19	
32.56	1811	0.19	
32.55	1812	0.19	
32.53	1812	0.19	
32.52	1813	0.19	
32.51	1814	0.19	
32.49	1814	0.19	
32.48	1815	0.19	
32.46	1816	0.19	
32.45	1817	0.19	
32.44	1817	0.19	
32.42	1818	0.19	
32.41	1819	0.19	
32.39	1819	0.19	
32.38	1820	0.19	
32.37	1821	0.19	
32.35	1821	0.19	
32.34	1822	0.19	
32.32	1823	0.19	
32.31	1824	0.19	
32.30	1824	0.19	
32.28	1825	0.19	
32.27	1826	0.19	
32.25	1826	0.19	
32.24	1827	0.19	
32.22	1828	0.19	
32.21	1828	0.19	
32.20	1829	0.19	
32.18	1830	0.19	
32.17	1831	0.19	
32.15	1831	0.19	
32.14	1832	0.19	
32.13	1833	0.19	
32.11	1833	0.19	
32.10	1834	0.19	
32.08	1835	0.19	
32.07	1835	0.19	
32.05	1836	0.19	
32.04	1837	0.19	
32.03	1838	0.19	
32.01	1838	0.19	
32.00	1839	0.19	
31.98	1840	0.19	
31.97	1840	0.19	
31.96	1841	0.19	
31.94	1842	0.19	
31.93	1842	0.19	
31.91	1843	0.19	
31.90	1844	0.19	
31.88	1845	0.19	
31.87	1845	0.19	
31.86	1846	0.19	
31.84	1847	0.19	
31.83	1847	0.19	
31.81	1848	0.19	
31.80	1849	0.19	
31.79	1849	0.19	
31.77	1850	0.19	
31.76	1851	0.19	
31.74	1852	0.19	
31.73	1852	0.19	
31.71	1853	0.19	
31.70	1854	0.19	
31.69	1854	0.19	
31.67	1855	0.19	
31.66	1856	0.19	
31.64	1856	0.19	
31.63	1857	0.19	
31.61	1858	0.19	
31.60	1859	0.19	
31.59	1859	0.19	
31.57	1860	0.19	
31.56	1861	0.19	
31.54	1861	0.19	
31.53	1862	0.19	
31.52	1863	0.19	
31.50	1863	0.19	
31.49	1864	0.19	
31.47	1865	0.19	
31.46	1866	0.19	
31.45	1866	0.19	
31.43	1867	0.19	
31.42	1868	0.19	
31.40	1868	0.19	
31.39	1869	0.19	
31.37	1870	0.19	
31.36	1870	0.19	
31.35	1871	0.19	
31.33	1872	0.19	
31.32	1873	0.19	
31.30	1873	0.19	
31.29	1874	0.19	
31.28	1875	0.19	
31.26	1875	0.18	
31.25	1876	0.18	
31.23	1877	0.18	
31.22	1877	0.18	
31.20	1878	0.19	
31.19	1879	0.19	
31.18	1880	0.19	
31.16	1880	0.19	
31.15	1881	0.19	
31.13	1882	0.19	
31.12	1882	0.19	
31.11	1883	0.19	
31.09	1884	0.19	
31.08	1884	0.18	
31.06	1885	0.18	
31.05	1886	0.18	
31.04	1887	0.19	
31.02	1887	0.19	
31.01	1888	0.19	
30.99	1889	0.19	
30.98	1889	0.19	
30.97	1890	0.19	
30.95	1891	0.19	
30.94	1891	0.19	
30.92	1892	0.19	
30.91	1893	0.19	
30.89	1894	0.19	
30.88	1894	0.19	
30.86	1895	0.19	
30.85	1896	0.18	
30.84	1896	0.18	
30.82	1897	0.18	
30.81	1898	0.18	
30.79	1898	0.18	
30.78	1899	0.18	
30.77	1900	0.18	
30.75	1901	0.18	
30.74	1901	0.18	
30.72	1902	0.18	
30.71	1903	0.18	
30.69	1903	0.18	
30.68	1904	0.18	
30.67	1905	0.18	
30.65	1905	0.18	
30.64	1906	0.18	
30.62	1907	0.18	
30.61	1908	0.18	
30.60	1908	0.18	
30.58	1909	0.18	
30.57	1910	0.18	
30.55	1910	0.18	
30.54	1911	0.18	
30.52	1912	0.18	
30.51	1912	0.18	
30.50	1913	0.18	
30.48	1914	0.18	
30.47	1915	0.18	
30.45	1915	0.18	
30.44	1916	0.19	
30.43	1917	0.19	
30.41	1917	0.19	
30.40	1918	0.18	
30.38	1919	0.18	
30.37	1919	0.18	
30.36	1920	0.18	
30.34	1921	0.18	
30.33	1922	0.18	
30.31	1922	0.18	
30.30	1923	0.18	
30.28	1924	0.18	
30.27	1924	0.18	
30.26	1925	0.18	
30.24	1926	0.18	
30.23	1926	0.18	
30.21	1927	0.18	
30.20	1928	0.18	
30.19	1929	0.18	
30.17	1929	0.18	
30.16	1930	0.18	
30.14	1931	0.18	
30.13	1931	0.18	
30.12	1932	0.18	
30.10	1933	0.18	
30.09	1933	0.18	
30.07	1934	0.18	
30.06	1935	0.18	
30.04	1936	0.18	
30.03	1936	0.18	
30.02	1937	0.18	
30.00	1938	0.18	
29.99	1938	0.18	
29.97	1939	0.18	
29.96	1940	0.18	
29.95	1940	0.18	
29.93	1941	0.18	
29.92	1942	0.18	
29.90	1943	0.18	
29.89	1943	0.18	
29.87	1944	0.18	
29.86	1945	0.18	
29.85	1945	0.18	
29.83	1946	0.18	
29.82	1947	0.18	
29.80	1947	0.18	
29.79	1948	0.18	
29.77	1949	0.18	
29.76	1950	0.18	
29.75	1950	0.18	
29.73	1951	0.18	
29.72	1952	0.18	
29.70	1952	0.18	
29.69	1953	0.18	
29.68	1954	0.18	
29.66	1954	0.18	
29.65	1955	0.18	
29.63	1956	0.18	
29.62	1957	0.18	
29.61	1957	0.18	
29.59	1958	0.18	
29.58	1959	0.18	
29.56	1959	0.18	
29.55	1960	0.18	
29.53	1961	0.18	
29.52	1961	0.18	
29.51	1962	0.18	
29.49	1963	0.18	
29.48	1964	0.18	
29.46	1964	0.18	
29.45	1965	0.18	
29.44	1966	0.18	
29.42	1966	0.18	
29.41	1967	0.18	
29.39	1968	0.18	
29.38	1968	0.18	
29.37	1969	0.18	
29.35	1970	0.18	
29.34	1971	0.18	
29.32	1971	0.18	
29.31	1972	0.18	
29.29	1973	0.18	
29.28	1973	0.18	
29.27	1974	0.18	
29.25	1975	0.18	
29.24	1975	0.18	
29.22	1976	0.18	
29.21	1977	0.18	
29.20	1978	0.18	
29.18	1978	0.18	
29.17	1979	0.18	
29.15	1980	0.18	
29.14	1980	0.18	
29.12	1981	0.18	
29.11	1982	0.18	
29.10	1982	0.18	
29.08	1983	0.18	
29.07	1984	0.18	
29.05	1985	0.18	
29.04	1985	0.18	
29.02	1986	0.18	
29.01	1987	0.18	
29.00	1987	0.18	
28.98	1988	0.18	
28.97	1989	0.18	
28.95	1989	0.18	
28.94	1990	0.18	
28.93	1991	0.18	
28.91	1992	0.18	
28.90	1992	0.18	
28.88	1993	0.18	
28.87	1994	0.18	
28.85	1994	0.18	
28.84	1995	0.18	
28.83	1996	0.18	
28.81	1996	0.17	
28.80	1997	0.17	
28.78	1998	0.17	
28.77	1999	0.17	
28.76	1999	0.17	
28.74	2000	0.17	
28.73	2001	0.17	
28.71	2001	0.17	
28.70	2002	0.17	
28.68	2003	0.17	
28.67	2003	0.17	
28.66	2004	0.18	
28.64	2005	0.18	
28.63	2006	0.18	
28.61	2006	0.18	
28.60	2007	0.18	
28.59	2008	0.18	
28.57	2008	0.18	
28.56	2009	0.18	
28.54	2010	0.17	
28.53	2010	0.17	
28.52	2011	0.17	
28.50	2012	0.17	
28.49	2013	0.17	
28.47	2013	0.18	
28.46	2014	0.18	
28.45	2015	0.18	
28.43	2015	0.18	
28.42	2016	0.18	
28.40	2017	0.18	
28.39	2017	0.18	
28.37	2018	0.18	
28.36	2019	0.18	
28.35	2020	0.18	
28.33	2020	0.18	
28.32	2021	0.18	
28.30	2022	0.18	
28.29	2022	0.18	
28.27	2023	0.17	
28.26	2024	0.17	
28.25	2024	0.17	
28.23	2025	0.17	
28.22	2026	0.17	
28.20	2027	0.17	
28.19	2027	0.17	
28.18	2028	0.17	
28.16	2029	0.17	
28.15	2029	0.17	
28.13	2030	0.17	
28.12	2031	0.17	
28.11	2031	0.17	
28.09	2032	0.17	
28.08	2033	0.17	
28.06	2034	0.17	
28.05	2034	0.17	
28.03	2035	0.17	
28.02	2036	0.17	
28.01	2036	0.17	
27.99	2037	0.17	
27.98	2038	0.17	
27.96	2038	0.17	
27.95	2039	0.17	
27.94	2040	0.17	
27.92	2041	0.17	
27.91	2041	0.17	
27.89	2042	0.17	
27.88	2043	0.17	
27.87	2043	0.17	
27.85	2044	0.17	
27.84	2045	0.17	
27.82	2045	0.17	
27.81	2046	0.17	
27.79	2047	0.17	
27.78	2048	0.17	
27.77	2048	0.17	
27.75	2049	0.17	
27.74	2050	0.17	
27.72	2050	0.17	
27.71	2051	0.17	
27.70	2052	0.17	
27.68	2052	0.17	
27.67	2053	0.17	
27.65	2054	0.17	
27.64	2055	0.17	
27.62	2055	0.17	
27.61	2056	0.17	
27.60	2057	0.17	
27.58	2057	0.17	
27.57	2058	0.17	
27.55	2059	0.17	
27.54	2059	0.17	
27.52	2060	0.17	
27.51	2061	0.17	
27.50	2062	0.17	
27.48	2062	0.17	
27.47	2063	0.17	
27.45	2064	0.17	
27.44	2064	0.17	
27.43	2065	0.17	
27.41	2066	0.17	
27.40	2066	0.17	
27.38	2067	0.17	
27.37	2068	0.17	
27.36	2069	0.17	
27.34	2069	0.17	
27.33	2070	0.17	
27.31	2071	0.17	
27.30	2071	0.17	
27.29	2072	0.17	
27.27	2073	0.17	
27.26	2073	0.17	
27.24	2074	0.17	
27.23	2075	0.17	
27.21	2076	0.17	
27.20	2076	0.17	
27.19	2077	0.17	
27.17	2078	0.17	
27.16	2078	0.17	
27.14	2079	0.17	
27.13	2080	0.17	
27.11	2080	0.17	
27.10	2081	0.17	
27.09	2082	0.17	
27.07	2083	0.17	
27.06	2083	0.17	
27.04	2084	0.17	
27.03	2085	0.17	
27.02	2085	0.17	
27.00	2086	0.17	
26.99	2087	0.17	
26.97	2087	0.17	
26.96	2088	0.17	
26.95	2089	0.17	
26.93	2090	0.17	
26.92	2090	0.17	
26.90	2091	0.17	
26.89	2092	0.17	
26.87	2092	0.17	
26.86	2093	0.17	
26.85	2094	0.17	
26.83	2094	0.17	
26.82	2095	0.17	
26.80	2096	0.17	
26.79	2097	0.17	
26.78	2097	0.17	
26.76	2098	0.17	
26.75	2099	0.17	
26.73	2099	0.17	
26.72	2100	0.17	
26.70	2101	0.17	
26.69	2101	0.16	
26.68	2102	0.16	
26.66	2103	0.16	
26.65	2104	0.16	
26.63	2104	0.16	
26.62	2105	0.16	
26.61	2106	0.16	
26.59	2106	0.16	
26.58	2107	0.16	
26.56	2108	0.16	
26.55	2108	0.16	
26.54	2109	0.17	
26.52	2110	0.17	
26.51	2111	0.17	
26.49	2111	0.17	
26.48	2112	0.16	
26.46	2113	0.16	
26.45	2113	0.16	
26.44	2114	0.16	
26.42	2115	0.16	
26.41	2115	0.16	
26.39	2116	0.16	
26.38	2117	0.16	
26.36	2118	0.16	
26.35	2118	0.16	
26.34	2119	0.16	
26.32	2120	0.16	
26.31	2120	0.16	
26.29	2121	0.16	
26.28	2122	0.16	
26.27	2122	0.17	
26.25	2123	0.17	
26.24	2124	0.17	
26.22	2125	0.17	
26.21	2125	0.17	
26.20	2126	0.16	
26.18	2127	0.16	
26.17	2127	0.16	
26.15	2128	0.16	
26.14	2129	0.16	
26.12	2129	0.16	
26.11	2130	0.16	
26.10	2131	0.16	
26.08	2132	0.16	
26.07	2132	0.16	
26.05	2133	0.16	
26.04	2134	0.16	
26.02	2134	0.16	
26.01	2135	0.16	
26.00	2136	0.16	
25.98	2136	0.16	
25.97	2137	0.16	
25.95	2138	0.16	
25.94	2139	0.16	
25.93	2139	0.16	
25.91	2140	0.16	
25.90	2141	0.16	
25.88	2141	0.16	
25.87	2142	0.16	
25.86	2143	0.16	
25.84	2143	0.16	
25.83	2144	0.16	
25.81	2145	0.16	
25.80	2146	0.16	
25.78	2146	0.16	
25.77	2147	0.16	
25.76	2148	0.16	
25.74	2148	0.16	
25.73	2149	0.16	
25.71	2150	0.16	
25.70	2150	0.16	
25.69	2151	0.16	
25.67	2152	0.16	
25.66	2153	0.16	
25.64	2153	0.16	
25.63	2154	0.16	
25.61	2155	0.16	
25.60	2155	0.16	
25.59	2156	0.16	
25.57	2157	0.16	
25.56	2157	0.16	
25.54	2158	0.16	
25.53	2159	0.16	
25.52	2160	0.16	
25.50	2160	0.16	
25.49	2161	0.16	
25.47	2162	0.16	
25.46	2162	0.16	
25.44	2163	0.16	
25.43	2164	0.16	
25.42	2164	0.16	
25.40	2165	0.16	
25.39	2166	0.16	
25.37	2167	0.16	
25.36	2167	0.16	
25.35	2168	0.16	
25.33	2169	0.16	
25.32	2169	0.16	
25.30	2170	0.16	
25.29	2171	0.16	
25.28	2171	0.16	
25.26	2172	0.16	
25.25	2173	0.16	
25.23	2174	0.16	
25.22	2174	0.16	
25.20	2175	0.16	
25.19	2176	0.16	
25.18	2176	0.16	
25.16	2177	0.16	
25.15	2178	0.16	
25.13	2178	0.16	
25.12	2179	0.16	
25.11	2180	0.16	
25.09	2181	0.16	
25.08	2181	0.16	
25.06	2182	0.16	
25.05	2183	0.16	
25.03	2183	0.16	
25.02	2184	0.16	
25.01	2185	0.16	
24.99	2185	0.16	
24.98	2186	0.16	
24.96	2187	0.16	
24.95	2188	0.16	
24.94	2188	0.16	
24.92	2189	0.16	
24.91	2190	0.16	
24.89	2190	0.16	
24.88	2191	0.16	
24.86	2192	0.16	
24.85	2192	0.15	
24.84	2193	0.15	
24.82	2194	0.15	
24.81	2195	0.15	
24.79	2195	0.15	
24.78	2196	0.16	
24.76	2197	0.16	
24.75	2197	0.16	
24.74	2198	0.16	
24.72	2199	0.16	
24.71	2199	0.16	
24.70	2200	0.16	
24.68	2201	0.15	
24.67	2202	0.15	
24.65	2202	0.15	
24.64	2203	0.15	
24.63	2204	0.15	
24.61	2204	0.15	
24.60	2205	0.16	
24.58	2206	0.15	
24.57	2206	0.16	
24.55	2207	0.16	
24.54	2208	0.16	
24.53	2209	0.16	
24.51	2209	0.16	
24.50	2210	0.15	
24.48	2211	0.15	
24.47	2211	0.15	
24.46	2212	0.15	
24.44	2213	0.15	
24.43	2213	0.15	
24.41	2214	0.15	
24.40	2215	0.15	
24.38	2216	0.15	
24.37	2216	0.15	
24.36	2217	0.15	
24.34	2218	0.15	
24.33	2218	0.15	
24.31	2219	0.15	
24.30	2220	0.15	
24.29	2220	0.15	
24.27	2221	0.15	
24.26	2222	0.15	
24.24	2223	0.15	
24.23	2223	0.15	
24.21	2224	0.15	
24.20	2225	0.15	
24.19	2225	0.15	
24.17	2226	0.15	
24.16	2227	0.15	
24.14	2227	0.15	
24.13	2228	0.15	
24.12	2229	0.15	
24.10	2230	0.15	
24.09	2230	0.15	
24.07	2231	0.15	
24.06	2232	0.15	
24.04	2232	0.15	
24.03	2233	0.15	
24.02	2234	0.15	
24.00	2234	0.15	
23.99	2235	0.15	
23.97	2236	0.15	
23.96	2237	0.15	
23.95	2237	0.15	
23.93	2238	0.15	
23.92	2239	0.15	
23.90	2239	0.15	
23.89	2240	0.15	
23.88	2241	0.15	
23.86	2241	0.15	
23.85	2242	0.15	
23.83	2243	0.15	
23.82	2244	0.15	
23.80	2244	0.15	
23.79	2245	0.15	
23.78	2246	0.15	
23.76	2246	0.15	
23.75	2247	0.15	
23.73	2248	0.15	
23.72	2248	0.15	
23.71	2249	0.15	
23.69	2250	0.15	
23.68	2251	0.15	
23.66	2251	0.15	
23.65	2252	0.15	
23.63	2253	0.15	
23.62	2253	0.15	
23.61	2254	0.15	
23.59	2255	0.15	
23.58	2255	0.15	
23.56	2256	0.15	
23.55	2257	0.15	
23.53	2258	0.15	
23.52	2258	0.15	
23.51	2259	0.15	
23.49	2260	0.15	
23.48	2260	0.15	
23.46	2261	0.15	
23.45	2262	0.15	
23.44	2262	0.15	
23.42	2263	0.15	
23.41	2264	0.15	
23.39	2265	0.15	
23.38	2265	0.15	
23.37	2266	0.15	
23.35	2267	0.15	
23.34	2267	0.15	
23.32	2268	0.15	
23.31	2269	0.15	
23.30	2269	0.15	
23.28	2270	0.15	
23.27	2271	0.15	
23.25	2272	0.15	
23.24	2272	0.15	
23.23	2273	0.15	
23.21	2274	0.15	
23.20	2274	0.15	
23.18	2275	0.15	
23.17	2276	0.15	
23.15	2276	0.15	
23.14	2277	0.15	
23.13	2278	0.15	
23.11	2279	0.15	
23.10	2279	0.15	
23.08	2280	0.15	
23.07	2281	0.15	
23.06	2281	0.15	
23.04	2282	0.15	
23.03	2283	0.15	
23.01	2283	0.15	
23.00	2284	0.15	
22.98	2285	0.14	
22.97	2286	0.14	
22.96	2286	0.14	
22.94	2287	0.14	
22.93	2288	0.14	
22.91	2288	0.14	
22.90	2289	0.14	
22.88	2290	0.14	
22.87	2290	0.14	
22.86	2291	0.15	
22.84	2292	0.15	
22.83	2293	0.15	
22.81	2293	0.15	
22.80	2294	0.15	
22.79	2295	0.15	
22.77	2295	0.15	
22.76	2296	0.14	
22.74	2297	0.14	
22.73	2297	0.14	
22.72	2298	0.14	
22.70	2299	0.14	
22.69	2300	0.14	
22.67	2300	0.14	
22.66	2301	0.14	
22.65	2302	0.14	
22.63	2302	0.14	
22.62	2303	0.14	
22.60	2304	0.14	
22.59	2304	0.14	
22.57	2305	0.14	
22.56	2306	0.14	
22.55	2307	0.14	
22.53	2307	0.14	
22.52	2308	0.14	
22.50	2309	0.14	
22.49	2309	0.14	
22.48	2310	0.14	
22.46	2311	0.14	
22.45	2311	0.14	
22.43	2312	0.14	
22.42	2313	0.14	
22.40	2314	0.14	
22.39	2314	0.14	
22.38	2315	0.14	
22.36	2316	0.14	
22.35	2316	0.14	
22.33	2317	0.14	
22.32	2318	0.14	
22.31	2318	0.14	
22.29	2319	0.15	
22.28	2320	0.15	
22.26	2321	0.15	
22.25	2321	0.15	
22.24	2322	0.14	
22.22	2323	0.14	
22.21	2323	0.14	
22.19	2324	0.14	
22.18	2325	0.14	
22.16	2325	0.14	
22.15	2326	0.14	
22.14	2327	0.14	
22.12	2328	0.14	
22.11	2328	0.14	
22.09	2329	0.14	
22.08	2330	0.14	
22.07	2330	0.14	
22.05	2331	0.14	
22.04	2332	0.14	
22.02	2332	0.14	
22.01	2333	0.14	
21.99	2334	0.14	
21.98	2335	0.14	
21.97	2335	0.14	
21.95	2336	0.14	
21.94	2337	0.14	
21.92	2337	0.14	
21.91	2338	0.14	
21.90	2339	0.14	
21.88	2339	0.14	
21.87	2340	0.14	
21.85	2341	0.14	
21.84	2342	0.14	
21.83	2342	0.14	
21.81	2343	0.14	
21.80	2344	0.14	
21.78	2344	0.14	
21.77	2345	0.14	
21.75	2346	0.14	
21.74	2346	0.14	
21.73	2347	0.14	
21.71	2348	0.14	
21.70	2349	0.14	
21.68	2349	0.14	
21.67	2350	0.14	
21.66	2351	0.14	
21.64	2351	0.14	
21.63	2352	0.14	
21.61	2353	0.14	
21.60	2353	0.14	
21.58	2354	0.14	
21.57	2355	0.14	
21.56	2356	0.14	
21.54	2356	0.14	
21.53	2357	0.14	
21.51	2358	0.14	
21.50	2358	0.14	
21.49	2359	0.14	
21.47	2360	0.14	
21.46	2360	0.14	
21.44	2361	0.14	
21.43	2362	0.14	
21.42	2363	0.14	
21.40	2363	0.14	
21.39	2364	0.14	
21.37	2365	0.14	
21.36	2365	0.14	
21.34	2366	0.14	
21.33	2367	0.14	
21.32	2367	0.14	
21.30	2368	0.14	
21.29	2369	0.14	
21.27	2370	0.14	
21.26	2370	0.14	
21.25	2371	0.14	
21.23	2372	0.14	
21.22	2372	0.14	
21.20	2373	0.14	
21.19	2374	0.14	
21.18	2374	0.14	
21.16	2375	0.14	
21.15	2376	0.14	
21.13	2377	0.14	
21.12	2377	0.14	
21.10	2378	0.14	
21.09	2379	0.14	
21.08	2379	0.14	
21.06	2380	0.14	
21.05	2381	0.14	
21.03	2381	0.14	
21.02	2382	0.14	
21.01	2383	0.14	
20.99	2384	0.14	
20.98	2384	0.14	
20.96	2385	0.14	
20.95	2386	0.14	
20.93	2386	0.14	
20.92	2387	0.14	
20.91	2388	0.14	
20.89	2388	0.14	
20.88	2389	0.14	
20.86	2390	0.14	
20.85	2391	0.14	
20.84	2391	0.14	
20.82	2392	0.14	
20.81	2393	0.14	
20.79	2393	0.14	
20.78	2394	0.14	
20.77	2395	0.14	
20.75	2395	0.14	
20.74	2396	0.14	
20.72	2397	0.14	
20.71	2398	0.14	
20.70	2398	0.14	
20.68	2399	0.14	
20.67	2400	0.14	
20.65	2400	0.14	
20.64	2401	0.14	
20.62	2402	0.14	
20.61	2402	0.14	
20.60	2403	0.14	
20.58	2404	0.14	
20.57	2405	0.14	
20.55	2405	0.14	
20.54	2406	0.14	
20.53	2407	0.14	
20.51	2407	0.14	
20.50	2408	0.14	
20.48	2409	0.14	
20.47	2409	0.14	
20.45	2410	0.14	
20.44	2411	0.14	
20.43	2412	0.14	
20.41	2412	0.14	
20.40	2413	0.14	
20.38	2414	0.14	
20.37	2414	0.14	
20.36	2415	0.14	
20.34	2416	0.13	
20.33	2416	0.13	
20.31	2417	0.13	
20.30	2418	0.13	
20.29	2419	0.13	
20.27	2419	0.13	
20.26	2420	0.13	
20.24	2421	0.13	
20.23	2421	0.13	
20.21	2422	0.13	
20.20	2423	0.13	
20.19	2423	0.13	
20.17	2424	0.13	
20.16	2425	0.13	
20.14	2426	0.13	
20.13	2426	0.13	
20.12	2427	0.13	
20.10	2428	0.13	
20.09	2428	0.13	
20.07	2429	0.13	
20.06	2430	0.14	
20.04	2430	0.14	
20.03	2431	0.14	
20.02	2432	0.14	
20.00	2433	0.14	
19.99	2433	0.14	
19.97	2434	0.14	
19.96	2435	0.14	
19.94	2435	0.14	
19.93	2436	0.14	
19.92	2437	0.14	
19.90	2437	0.13	
19.89	2438	0.13	
19.87	2439	0.13	
19.86	2440	0.13	
19.85	2440	0.13	
19.83	2441	0.13	
19.82	2442	0.13	
19.80	2442	0.13	
19.79	2443	0.13	
19.78	2444	0.13	
19.76	2444	0.13	
19.75	2445	0.13	
19.73	2446	0.13	
19.72	2447	0.13	
19.70	2447	0.13	
19.69	2448	0.13	
19.68	2449	0.13	
19.66	2449	0.13	
19.65	2450	0.13	
19.63	2451	0.13	
19.62	2451	0.13	
19.61	2452	0.13	
19.59	2453	0.13	
19.58	2454	0.13	
19.56	2454	0.13	
19.55	2455	0.13	
19.54	2456	0.13	
19.52	2456	0.13	
19.51	2457	0.13	
19.49	2458	0.13	
19.48	2458	0.13	
19.46	2459	0.13	
19.45	2460	0.13	
19.44	2461	0.13	
19.42	2461	0.13	
19.41	2462	0.13	
19.39	2463	0.13	
19.38	2463	0.13	
19.37	2464	0.13	
19.35	2465	0.13	
19.34	2465	0.13	
19.32	2466	0.13	
19.31	2467	0.13	
19.30	2468	0.13	
19.28	2468	0.13	
19.27	2469	0.13	
19.25	2470	0.13	
19.24	2470	0.13	
19.22	2471	0.13	
19.21	2472	0.13	
19.20	2472	0.13	
19.18	2473	0.13	
19.17	2474	0.13	
19.15	2475	0.13	
19.14	2475	0.13	
19.13	2476	0.13	
19.11	2477	0.13	
19.10	2477	0.13	
19.08	2478	0.13	
19.07	2479	0.13	
19.06	2479	0.13	
19.04	2480	0.13	
19.03	2481	0.13	
19.01	2482	0.13	
19.00	2482	0.13	
18.98	2483	0.13	
18.97	2484	0.13	
18.96	2484	0.13	
18.94	2485	0.13	
18.93	2486	0.13	
18.91	2486	0.13	
18.90	2487	0.13	
18.89	2488	0.13	
18.87	2489	0.13	
18.86	2489	0.13	
18.84	2490	0.13	
18.83	2491	0.13	
18.82	2491	0.13	
18.80	2492	0.13	
18.79	2493	0.13	
18.77	2493	0.13	
18.76	2494	0.13	
18.74	2495	0.13	
18.73	2496	0.13	
18.72	2496	0.13	
18.70	2497	0.13	
18.69	2498	0.13	
18.67	2498	0.13	
18.66	2499	0.13	
18.64	2500	0.13	
18.63	2500	0.13	
18.62	2501	0.13	
18.60	2502	0.13	
18.59	2503	0.13	
18.57	2503	0.13	
18.56	2504	0.13	
18.55	2505	0.13	
18.53	2505	0.13	
18.52	2506	0.13	
18.50	2507	0.13	
18.49	2507	0.13	
18.48	2508	0.13	
18.46	2509	0.13	
18.45	2510	0.13	
18.43	2510	0.13	
18.42	2511	0.13	
18.41	2512	0.13	
18.39	2512	0.13	
18.38	2513	0.13	
18.36	2514	0.13	
18.35	2514	0.13	
18.34	2515	0.13	
18.32	2516	0.13	
18.31	2517	0.13	
18.29	2517	0.13	
18.28	2518	0.13	
18.26	2519	0.13	
18.25	2519	0.13	
18.24	2520	0.13	
18.22	2521	0.13	
18.21	2521	0.13	
18.19	2522	0.13	
18.18	2523	0.13	
18.17	2524	0.13	
18.15	2524	0.13	
18.14	2525	0.13	
18.12	2526	0.13	
18.11	2526	0.13	
18.09	2527	0.13	
18.08	2528	0.13	
18.07	2528	0.13	
18.05	2529	0.13	
18.04	2530	0.13	
18.02	2531	0.13	
18.01	2531	0.13	
18.00	2532	0.13	
17.98	2533	0.13	
17.97	2533	0.13	
17.95	2534	0.13	
17.94	2535	0.13	
17.92	2535	0.13	
17.91	2536	0.13	
17.90	2537	0.13	
17.88	2538	0.13	
17.87	2538	0.12	
17.85	2539	0.12	
17.84	2540	0.12	
17.83	2540	0.12	
17.81	2541	0.13	
17.80	2542	0.13	
17.78	2542	0.13	
17.77	2543	0.12	
17.76	2544	0.12	
17.74	2545	0.12	
17.73	2545	0.12	
17.71	2546	0.12	
17.70	2547	0.12	
17.68	2547	0.12	
17.67	2548	0.12	
17.66	2549	0.12	
17.64	2549	0.12	
17.63	2550	0.13	
17.61	2551	0.13	
17.60	2552	0.13	
17.59	2552	0.13	
17.57	2553	0.13	
17.56	2554	0.13	
17.54	2554	0.12	
17.53	2555	0.12	
17.52	2556	0.12	
17.50	2556	0.12	
17.49	2557	0.12	
17.47	2558	0.12	
17.46	2559	0.12	
17.45	2559	0.12	
17.43	2560	0.12	
17.42	2561	0.12	
17.40	2561	0.12	
17.39	2562	0.13	
17.37	2563	0.13	
17.36	2563	0.12	
17.35	2564	0.12	
17.33	2565	0.12	
17.32	2566	0.12	
17.30	2566	0.12	
17.29	2567	0.12	
17.28	2568	0.12	
17.26	2568	0.12	
17.25	2569	0.12	
17.23	2570	0.12	
17.22	2570	0.12	
17.21	2571	0.12	
17.19	2572	0.12	
17.18	2573	0.12	
17.16	2573	0.12	
17.15	2574	0.12	
17.14	2575	0.12	
17.12	2575	0.12	
17.11	2576	0.12	
17.09	2577	0.12	
17.08	2577	0.12	
17.07	2578	0.12	
17.05	2579	0.12	
17.04	2580	0.12	
17.02	2580	0.12	
17.01	2581	0.12	
16.99	2582	0.12	
16.98	2582	0.12	
16.97	2583	0.12	
16.95	2584	0.12	
16.94	2584	0.12	
16.92	2585	0.12	
16.91	2586	0.12	
16.90	2587	0.12	
16.88	2587	0.12	
16.87	2588	0.12	
16.85	2589	0.12	
16.84	2589	0.12	
16.83	2590	0.12	
16.81	2591	0.12	
16.80	2591	0.12	
16.78	2592	0.12	
16.77	2593	0.12	
16.75	2594	0.12	
16.74	2594	0.12	
16.73	2595	0.12	
16.71	2596	0.12	
16.70	2596	0.12	
16.68	2597	0.12	
16.67	2598	0.12	
16.65	2598	0.12	
16.64	2599	0.12	
16.63	2600	0.12	
16.61	2601	0.12	
16.60	2601	0.12	
16.58	2602	0.12	
16.57	2603	0.12	
16.56	2603	0.12	
16.54	2604	0.12	
16.53	2605	0.12	
16.51	2605	0.12	
16.50	2606	0.12	
16.49	2607	0.12	
16.47	2608	0.12	
16.46	2608	0.12	
16.44	2609	0.12	
16.43	2610	0.12	
16.42	2610	0.12	
16.40	2611	0.12	
16.39	2612	0.12	
16.37	2612	0.12	
16.36	2613	0.12	
16.35	2614	0.12	
16.33	2615	0.12	
16.32	2615	0.12	
16.30	2616	0.12	
16.29	2617	0.12	
16.28	2617	0.12	
16.26	2618	0.12	
16.25	2619	0.12	
16.23	2619	0.12	
16.22	2620	0.12	
16.20	2621	0.12	
16.19	2622	0.12	
16.18	2622	0.12	
16.16	2623	0.12	
16.15	2624	0.12	
16.13	2624	0.12	
16.12	2625	0.12	
16.11	2626	0.12	
16.09	2626	0.12	
16.08	2627	0.12	
16.06	2628	0.12	
16.05	2629	0.12	
16.03	2629	0.12	
16.02	2630	0.12	
16.01	2631	0.12	
15.99	2631	0.12	
15.98	2632	0.12	
15.96	2633	0.12	
15.95	2633	0.12	
15.94	2634	0.12	
15.92	2635	0.12	
15.91	2636	0.12	
15.89	2636	0.12	
15.88	2637	0.12	
15.87	2638	0.12	
15.85	2638	0.12	
15.84	2639	0.12	
15.82	2640	0.12	
15.81	2640	0.12	
15.79	2641	0.12	
15.78	2642	0.12	
15.77	2643	0.12	
15.75	2643	0.12	
15.74	2644	0.12	
15.72	2645	0.12	
15.71	2645	0.12	
15.70	2646	0.12	
15.68	2647	0.12	
15.67	2647	0.11	
15.65	2648	0.11	
15.64	2649	0.11	
15.63	2650	0.12	
15.61	2650	0.12	
15.60	2651	0.11	
15.58	2652	0.11	
15.57	2652	0.11	
15.56	2653	0.11	
15.54	2654	0.11	
15.53	2654	0.11	
15.51	2655	0.11	
15.50	2656	0.11	
15.49	2657	0.11	
15.47	2657	0.11	
15.46	2658	0.11	
15.44	2659	0.11	
15.43	2659	0.11	
15.42	2660	0.11	
15.40	2661	0.11	
15.39	2661	0.11	
15.37	2662	0.11	
15.36	2663	0.11	
15.35	2664	0.12	
15.33	2664	0.12	
15.32	2665	0.12	
15.30	2666	0.12	
15.29	2666	0.12	
15.28	2667	0.12	
15.26	2668	0.12	
15.25	2668	0.12	
15.23	2669	0.11	
15.22	2670	0.11	
15.20	2671	0.11	
15.19	2671	0.11	
15.18	2672	0.11	
15.16	2673	0.11	
15.15	2673	0.11	
15.13	2674	0.11	
15.12	2675	0.11	
15.11	2675	0.11	
15.09	2676	0.11	
15.08	2677	0.11	
15.06	2678	0.11	
15.05	2678	0.11	
15.04	2679	0.11	
15.02	2680	0.11	
15.01	2680	0.11	
14.99	2681	0.11	
14.98	2682	0.11	
14.97	2682	0.11	
14.95	2683	0.11	
14.94	2684	0.11	
14.92	2685	0.11	
14.91	2685	0.11	
14.89	2686	0.11	
14.88	2687	0.11	
14.87	2687	0.11	
14.85	2688	0.11	
14.84	2689	0.11	
14.82	2689	0.11	
14.81	2690	0.11	
14.80	2691	0.11	
14.78	2692	0.11	
14.77	2692	0.11	
14.75	2693	0.11	
14.74	2694	0.11	
14.73	2694	0.11	
14.71	2695	0.11	
14.70	2696	0.11	
14.68	2696	0.11	
14.67	2697	0.11	
14.66	2698	0.11	
14.64	2699	0.11	
14.63	2699	0.11	
14.61	2700	0.11	
14.60	2701	0.11	
14.59	2701	0.11	
14.57	2702	0.11	
14.56	2703	0.11	
14.54	2703	0.11	
14.53	2704	0.11	
14.52	2705	0.11	
14.50	2706	0.11	
14.49	2706	0.11	
14.47	2707	0.11	
14.46	2708	0.11	
14.45	2708	0.11	
14.43	2709	0.11	
14.42	2710	0.11	
14.40	2710	0.11	
14.39	2711	0.11	
14.37	2712	0.11	
14.36	2713	0.11	
14.35	2713	0.11	
14.33	2714	0.11	
14.32	2715	0.11	
14.30	2715	0.11	
14.29	2716	0.11	
14.28	2717	0.11	
14.26	2717	0.11	
14.25	2718	0.11	
14.23	2719	0.11	
14.22	2720	0.11	
14.20	2720	0.11	
14.19	2721	0.11	
14.18	2722	0.11	
14.16	2722	0.11	
14.15	2723	0.11	
14.13	2724	0.11	
14.12	2724	0.11	
14.11	2725	0.11	
14.09	2726	0.11	
14.08	2727	0.11	
14.06	2727	0.11	
14.05	2728	0.11	
14.04	2729	0.11	
14.02	2729	0.11	
14.01	2730	0.11	
13.99	2731	0.11	
13.98	2731	0.11	
13.97	2732	0.11	
13.95	2733	0.11	
13.94	2734	0.11	
13.92	2734	0.11	
13.91	2735	0.11	
13.90	2736	0.11	
13.88	2736	0.11	
13.87	2737	0.11	
13.85	2738	0.11	
13.84	2738	0.11	
13.83	2739	0.11	
13.81	2740	0.11	
13.80	2741	0.11	
13.78	2741	0.11	
13.77	2742	0.11	
13.75	2743	0.11	
13.74	2743	0.11	
13.73	2744	0.11	
13.71	2745	0.11	
13.70	2745	0.11	
13.68	2746	0.11	
13.67	2747	0.11	
13.66	2748	0.11	
13.64	2748	0.11	
13.63	2749	0.11	
13.61	2750	0.11	
13.60	2750	0.11	
13.59	2751	0.11	
13.57	2752	0.11	
13.56	2752	0.11	
13.54	2753	0.11	
13.53	2754	0.11	
13.52	2755	0.11	
13.50	2755	0.11	
13.49	2756	0.10	
13.47	2757	0.10	
13.46	2757	0.10	
13.45	2758	0.11	
13.43	2759	0.11	
13.42	2759	0.11	
13.40	2760	0.11	
13.39	2761	0.11	
13.38	2762	0.11	
13.36	2762	0.11	
13.35	2763	0.11	
13.33	2764	0.11	
13.32	2764	0.10	
13.30	2765	0.10	
13.29	2766	0.10	
13.28	2766	0.10	
13.26	2767	0.10	
13.25	2768	0.10	
13.24	2769	0.10	
13.22	2769	0.10	
13.21	2770	0.10	
13.19	2771	0.10	
13.18	2771	0.10	
13.17	2772	0.10	
13.15	2773	0.10	
13.14	2773	0.10	
13.12	2774	0.10	
13.11	2775	0.10	
13.10	2776	0.10	
13.08	2776	0.10	
13.07	2777	0.10	
13.05	2778	0.10	
13.04	2778	0.10	
13.03	2779	0.10	
13.01	2780	0.10	
13.00	2780	0.10	
12.98	2781	0.10	
12.97	2782	0.10	
12.95	2783	0.10	
12.94	2783	0.10	
12.93	2784	0.10	
12.91	2785	0.10	
12.90	2785	0.10	
12.89	2786	0.10	
12.87	2787	0.10	
12.86	2787	0.10	
12.84	2788	0.10	
12.83	2789	0.10	
12.81	2790	0.10	
12.80	2790	0.10	
12.79	2791	0.10	
12.77	2792	0.10	
12.76	2792	0.10	
12.74	2793	0.10	
12.73	2794	0.10	
12.72	2794	0.10	
12.70	2795	0.10	
12.69	2796	0.10	
12.67	2797	0.10	
12.66	2797	0.10	
12.65	2798	0.10	
12.63	2799	0.10	
12.62	2799	0.10	
12.60	2800	0.10	
12.59	2801	0.10	
12.58	2801	0.10	
12.56	2802	0.10	
12.55	2803	0.10	
12.53	2804	0.10	
12.52	2804	0.10	
12.51	2805	0.10	
12.49	2806	0.10	
12.48	2806	0.10	
12.46	2807	0.10	
12.45	2808	0.10	
12.44	2808	0.10	
12.42	2809	0.10	
12.41	2810	0.10	
12.39	2811	0.10	
12.38	2811	0.10	
12.37	2812	0.10	
12.35	2813	0.10	
12.34	2813	0.10	
12.32	2814	0.10	
12.31	2815	0.10	
12.29	2815	0.10	
12.28	2816	0.10	
12.27	2817	0.10	
12.25	2818	0.10	
12.24	2818	0.10	
12.22	2819	0.10	
12.21	2820	0.10	
12.20	2820	0.10	
12.18	2821	0.10	
12.17	2822	0.10	
12.15	2822	0.10	
12.14	2823	0.10	
12.13	2824	0.10	
12.11	2825	0.10	
12.10	2825	0.10	
12.08	2826	0.10	
12.07	2827	0.10	
12.06	2827	0.10	
12.04	2828	0.10	
12.03	2829	0.10	
12.02	2829	0.10	
12.00	2830	0.10	
11.99	2831	0.10	
11.97	2832	0.10	
11.96	2832	0.10	
11.95	2833	0.10	
11.93	2834	0.10	
11.92	2834	0.10	
11.90	2835	0.10	
11.89	2836	0.10	
11.88	2836	0.10	
11.86	2837	0.10	
11.85	2838	0.10	
11.83	2839	0.10	
11.82	2839	0.10	
11.80	2840	0.10	
11.79	2841	0.10	
11.78	2841	0.10	
11.76	2842	0.10	
11.75	2843	0.10	
11.73	2843	0.10	
11.72	2844	0.10	
11.71	2845	0.10	
11.69	2846	0.10	
11.68	2846	0.10	
11.67	2847	0.10	
11.65	2848	0.10	
11.64	2848	0.10	
11.62	2849	0.10	
11.61	2850	0.10	
11.60	2850	0.10	
11.58	2851	0.10	
11.57	2852	0.10	
11.55	2853	0.10	
11.54	2853	0.10	
11.53	2854	0.10	
11.51	2855	0.10	
11.50	2855	0.10	
11.48	2856	0.10	
11.47	2857	0.10	
11.45	2857	0.10	
11.44	2858	0.10	
11.43	2859	0.10	
11.41	2860	0.10	
11.40	2860	0.10	
11.39	2861	0.10	
11.37	2862	0.09	
11.36	2862	0.09	
11.34	2863	0.09	
11.33	2864	0.09	
11.31	2864	0.09	
11.30	2865	0.09	
11.29	2866	0.09	
11.27	2867	0.09	
11.26	2867	0.09	
11.24	2868	0.09	
11.23	2869	0.09	
11.22	2869	0.09	
11.20	2870	0.09	
11.19	2871	0.09	
11.18	2871	0.09	
11.16	2872	0.09	
11.15	2873	0.09	
11.13	2874	0.09	
11.12	2874	0.09	
11.11	2875	0.09	
11.09	2876	0.09	
11.08	2876	0.09	
11.06	2877	0.09	
11.05	2878	0.09	
11.04	2878	0.09	
11.02	2879	0.09	
11.01	2880	0.09	
10.99	2881	0.09	
10.98	2881	0.09	
10.97	2882	0.09	
10.95	2883	0.09	
10.94	2883	0.09	
10.92	2884	0.09	
10.91	2885	0.09	
10.90	2885	0.09	
10.88	2886	0.09	
10.87	2887	0.09	
10.85	2888	0.09	
10.84	2888	0.09	
10.83	2889	0.09	
10.81	2890	0.09	
10.80	2890	0.09	
10.79	2891	0.09	
10.77	2892	0.09	
10.76	2892	0.09	
10.74	2893	0.09	
10.73	2894	0.09	
10.72	2895	0.09	
10.70	2895	0.09	
10.69	2896	0.09	
10.67	2897	0.09	
10.66	2897	0.10	
10.65	2898	0.10	
10.63	2899	0.10	
10.62	2899	0.10	
10.60	2900	0.09	
10.59	2901	0.09	
10.58	2902	0.09	
10.56	2902	0.09	
10.55	2903	0.09	
10.53	2904	0.09	
10.52	2904	0.09	
10.51	2905	0.09	
10.49	2906	0.09	
10.48	2906	0.09	
10.46	2907	0.09	
10.45	2908	0.09	
10.44	2909	0.09	
10.42	2909	0.09	
10.41	2910	0.09	
10.39	2911	0.09	
10.38	2911	0.09	
10.37	2912	0.09	
10.35	2913	0.09	
10.34	2913	0.09	
10.32	2914	0.09	
10.31	2915	0.09	
10.30	2916	0.09	
10.28	2916	0.09	
10.27	2917	0.09	
10.26	2918	0.09	
10.24	2918	0.09	
10.23	2919	0.10	
10.21	2920	0.10	
10.20	2920	0.10	
10.19	2921	0.10	
10.17	2922	0.10	
10.16	2923	0.10	
10.15	2923	0.10	
10.13	2924	0.10	
10.12	2925	0.10	
10.10	2925	0.10	
10.09	2926	0.10	
10.08	2927	0.10	
10.06	2927	0.10	
10.05	2928	0.10	
10.03	2929	0.10	
10.02	2930	0.10	
10.01	2930	0.10	
9.99	2931	0.10	
9.98	2932	0.10	
9.97	2932	0.10	
9.95	2933	0.10	
9.94	2934	0.10	
9.92	2934	0.10	
9.91	2935	0.10	
9.90	2936	0.10	
9.88	2937	0.10	
9.87	2937	0.10	
9.85	2938	0.10	
9.84	2939	0.10	
9.83	2939	0.10	
9.81	2940	0.10	
9.80	2941	0.10	
9.78	2941	0.10	
9.77	2942	0.10	
9.76	2943	0.10	
9.74	2944	0.10	
9.73	2944	0.10	
9.71	2945	0.10	
9.70	2946	0.10	
9.69	2946	0.10	
9.67	2947	0.10	
9.66	2948	0.10	
9.65	2948	0.10	
9.63	2949	0.10	
9.62	2950	0.10	
9.60	2951	0.10	
9.59	2951	0.10	
9.58	2952	0.10	
9.56	2953	0.10	
9.55	2953	0.10	
9.54	2954	0.10	
9.52	2955	0.10	
9.51	2955	0.10	
9.49	2956	0.10	
9.48	2957	0.10	
9.47	2958	0.10	
9.45	2958	0.10	
9.44	2959	0.10	
9.42	2960	0.10	
9.41	2960	0.10	
9.40	2961	0.10	
9.38	2962	0.10	
9.37	2962	0.10	
9.36	2963	0.10	
9.34	2964	0.10	
9.33	2965	0.10	
9.31	2965	0.10	
9.30	2966	0.10	
9.29	2967	0.10	
9.27	2967	0.11	
9.26	2968	0.11	
9.25	2969	0.11	
9.23	2969	0.11	
9.22	2970	0.11	
9.21	2971	0.11	
9.19	2972	0.11	
9.18	2972	0.11	
9.16	2973	0.11	
9.15	2974	0.11	
9.14	2974	0.11	
9.12	2975	0.11	
9.11	2976	0.11	
9.10	2976	0.11	
9.08	2977	0.11	
9.07	2978	0.11	
9.05	2979	0.11	
9.04	2979	0.11	
9.03	2980	0.11	
9.01	2981	0.11	
9.00	2981	0.11	
8.99	2982	0.11	
8.97	2983	0.11	
8.96	2983	0.11	
8.94	2984	0.11	
8.93	2985	0.11	
8.92	2986	0.11	
8.90	2986	0.11	
8.89	2987	0.11	
8.87	2988	0.11	
8.86	2988	0.11	
8.85	2989	0.11	
8.83	2990	0.11	
8.82	2990	0.11	
8.81	2991	0.11	
8.79	2992	0.11	
8.78	2993	0.11	
8.77	2993	0.11	
8.75	2994	0.11	
8.74	2995	0.11	
8.72	2995	0.11	
8.71	2996	0.11	
8.70	2997	0.11	
8.68	2997	0.11	
8.67	2998	0.11	
8.66	2999	0.11	
8.64	3000	0.11	
