H2O_H2O
Furnace temperature 	Time	HeatFlow	
/°C	/s	/mW	
64.80	0	-0.16	
64.80	1	-0.16	
64.84	1	-0.16	
64.91	2	-0.16	
64.97	3	-0.16	
65.08	4	-0.16	
65.19	4	-0.16	
65.33	5	-0.16	
65.47	6	-0.16	
65.63	6	-0.16	
65.80	7	-0.16	
65.98	8	-0.17	
66.16	8	-0.17	
66.34	9	-0.17	
66.51	10	-0.17	
66.69	11	-0.18	
66.84	11	-0.18	
66.99	12	-0.18	
67.13	13	-0.19	
67.26	13	-0.19	
67.38	14	-0.20	
67.47	15	-0.21	
67.56	15	-0.21	
67.63	16	-0.22	
67.69	17	-0.23	
67.74	18	-0.23	
67.77	18	-0.24	
67.80	19	-0.25	
67.82	20	-0.26	
67.84	20	-0.27	
67.84	21	-0.28	
67.85	22	-0.28	
67.85	22	-0.29	
67.85	23	-0.30	
67.84	24	-0.31	
67.84	25	-0.32	
67.83	25	-0.33	
67.82	26	-0.34	
67.82	27	-0.34	
67.82	27	-0.35	
67.81	28	-0.36	
67.81	29	-0.37	
67.81	29	-0.38	
67.81	30	-0.38	
67.81	31	-0.39	
67.81	32	-0.40	
67.81	32	-0.41	
67.81	33	-0.42	
67.82	34	-0.42	
67.82	34	-0.43	
67.82	35	-0.44	
67.82	36	-0.45	
67.83	36	-0.45	
67.83	37	-0.46	
67.83	38	-0.47	
67.83	39	-0.48	
67.83	39	-0.48	
67.83	40	-0.49	
67.83	41	-0.50	
67.82	41	-0.51	
67.82	42	-0.51	
67.82	43	-0.52	
67.81	43	-0.53	
67.81	44	-0.54	
67.80	45	-0.54	
67.79	46	-0.55	
67.79	46	-0.56	
67.78	47	-0.56	
67.77	48	-0.57	
67.77	48	-0.58	
67.76	49	-0.58	
67.75	50	-0.59	
67.75	50	-0.59	
67.74	51	-0.60	
67.73	52	-0.61	
67.72	53	-0.61	
67.72	53	-0.62	
67.71	54	-0.62	
67.70	55	-0.63	
67.70	55	-0.63	
67.69	56	-0.64	
67.68	57	-0.64	
67.67	57	-0.65	
67.66	58	-0.65	
67.66	59	-0.66	
67.65	60	-0.66	
67.64	60	-0.67	
67.63	61	-0.67	
67.62	62	-0.68	
67.62	62	-0.68	
67.61	63	-0.68	
67.60	64	-0.69	
67.59	64	-0.69	
67.58	65	-0.70	
67.57	66	-0.70	
67.56	67	-0.70	
67.55	67	-0.71	
67.54	68	-0.71	
67.53	69	-0.71	
67.52	69	-0.71	
67.51	70	-0.72	
67.50	71	-0.72	
67.49	71	-0.72	
67.48	72	-0.73	
67.47	73	-0.73	
67.46	74	-0.73	
67.45	74	-0.73	
67.44	75	-0.74	
67.43	76	-0.74	
67.42	76	-0.74	
67.41	77	-0.74	
67.40	78	-0.74	
67.39	78	-0.74	
67.38	79	-0.75	
67.37	80	-0.75	
67.36	81	-0.75	
67.35	81	-0.75	
67.34	82	-0.75	
67.33	83	-0.75	
67.32	83	-0.75	
67.30	84	-0.75	
67.29	85	-0.75	
67.28	85	-0.75	
67.27	86	-0.75	
67.26	87	-0.75	
67.25	88	-0.75	
67.24	88	-0.75	
67.23	89	-0.75	
67.21	90	-0.75	
67.20	90	-0.75	
67.19	91	-0.75	
67.18	92	-0.75	
67.17	92	-0.75	
67.16	93	-0.75	
67.14	94	-0.75	
67.13	95	-0.75	
67.12	95	-0.74	
67.11	96	-0.74	
67.10	97	-0.74	
67.09	97	-0.74	
67.07	98	-0.74	
67.06	99	-0.74	
67.05	99	-0.74	
67.04	100	-0.73	
67.03	101	-0.73	
67.02	102	-0.73	
67.00	102	-0.73	
66.99	103	-0.73	
66.98	104	-0.73	
66.97	104	-0.72	
66.95	105	-0.72	
66.94	106	-0.72	
66.93	106	-0.72	
66.92	107	-0.71	
66.91	108	-0.71	
66.89	109	-0.71	
66.88	109	-0.71	
66.87	110	-0.71	
66.86	111	-0.70	
66.84	111	-0.70	
66.83	112	-0.70	
66.82	113	-0.70	
66.81	113	-0.69	
66.79	114	-0.69	
66.78	115	-0.69	
66.77	116	-0.69	
66.76	116	-0.68	
66.74	117	-0.68	
66.73	118	-0.68	
66.72	118	-0.68	
66.71	119	-0.67	
66.69	120	-0.67	
66.68	120	-0.67	
66.67	121	-0.67	
66.65	122	-0.66	
66.64	123	-0.66	
66.63	123	-0.66	
66.62	124	-0.66	
66.60	125	-0.65	
66.59	125	-0.65	
66.58	126	-0.65	
66.56	127	-0.65	
66.55	127	-0.65	
66.54	128	-0.64	
66.53	129	-0.64	
66.51	130	-0.64	
66.50	130	-0.64	
66.49	131	-0.64	
66.47	132	-0.64	
66.46	132	-0.63	
66.45	133	-0.63	
66.43	134	-0.63	
66.42	134	-0.63	
66.41	135	-0.63	
66.40	136	-0.62	
66.38	137	-0.62	
66.37	137	-0.62	
66.36	138	-0.62	
66.34	139	-0.62	
66.33	139	-0.61	
66.32	140	-0.61	
66.30	141	-0.61	
66.29	141	-0.61	
66.28	142	-0.61	
66.26	143	-0.60	
66.25	144	-0.60	
66.24	144	-0.60	
66.22	145	-0.60	
66.21	146	-0.60	
66.20	146	-0.59	
66.18	147	-0.59	
66.17	148	-0.59	
66.16	148	-0.59	
66.14	149	-0.59	
66.13	150	-0.59	
66.12	151	-0.58	
66.10	151	-0.58	
66.09	152	-0.58	
66.08	153	-0.58	
66.06	153	-0.57	
66.05	154	-0.57	
66.04	155	-0.57	
66.02	155	-0.56	
66.01	156	-0.56	
66.00	157	-0.56	
65.98	158	-0.55	
65.97	158	-0.55	
65.96	159	-0.55	
65.94	160	-0.55	
65.93	160	-0.55	
65.91	161	-0.54	
65.90	162	-0.54	
65.89	162	-0.54	
65.89	163	-0.53	
65.90	164	-0.53	
65.90	165	-0.53	
65.90	165	-0.53	
65.91	166	-0.52	
65.91	167	-0.52	
65.91	167	-0.52	
65.90	168	-0.51	
65.90	169	-0.51	
65.89	169	-0.51	
65.88	170	-0.50	
65.87	171	-0.50	
65.86	172	-0.50	
65.85	172	-0.49	
65.83	173	-0.49	
65.82	174	-0.49	
65.80	174	-0.48	
65.78	175	-0.48	
65.76	176	-0.48	
65.75	176	-0.48	
65.73	177	-0.47	
65.71	178	-0.47	
65.70	179	-0.47	
65.68	179	-0.46	
65.66	180	-0.46	
65.65	181	-0.45	
65.64	181	-0.45	
65.62	182	-0.45	
65.61	183	-0.44	
65.60	183	-0.44	
65.58	184	-0.44	
65.57	185	-0.43	
65.56	186	-0.43	
65.55	186	-0.42	
65.54	187	-0.42	
65.53	188	-0.42	
65.52	188	-0.41	
65.51	189	-0.41	
65.50	190	-0.41	
65.49	190	-0.40	
65.47	191	-0.40	
65.46	192	-0.40	
65.45	193	-0.39	
65.44	193	-0.39	
65.43	194	-0.39	
65.41	195	-0.38	
65.40	195	-0.38	
65.38	196	-0.38	
65.37	197	-0.37	
65.36	197	-0.37	
65.34	198	-0.36	
65.33	199	-0.36	
65.31	200	-0.36	
65.30	200	-0.35	
65.28	201	-0.35	
65.27	202	-0.35	
65.26	202	-0.34	
65.24	203	-0.34	
65.23	204	-0.34	
65.21	204	-0.33	
65.20	205	-0.33	
65.19	206	-0.33	
65.17	207	-0.32	
65.16	207	-0.32	
65.15	208	-0.31	
65.13	209	-0.31	
65.12	209	-0.31	
65.11	210	-0.30	
65.09	211	-0.30	
65.08	211	-0.30	
65.07	212	-0.29	
65.05	213	-0.29	
65.04	214	-0.29	
65.02	214	-0.28	
65.01	215	-0.28	
65.00	216	-0.27	
64.98	216	-0.27	
64.97	217	-0.27	
64.95	218	-0.27	
64.94	218	-0.26	
64.93	219	-0.26	
64.91	220	-0.25	
64.90	221	-0.25	
64.88	221	-0.25	
64.87	222	-0.25	
64.86	223	-0.24	
64.84	223	-0.24	
64.83	224	-0.24	
64.81	225	-0.23	
64.80	225	-0.23	
64.78	226	-0.23	
64.77	227	-0.23	
64.76	228	-0.22	
64.74	228	-0.22	
64.73	229	-0.22	
64.71	230	-0.21	
64.70	230	-0.21	
64.68	231	-0.21	
64.67	232	-0.20	
64.66	232	-0.20	
64.64	233	-0.19	
64.63	234	-0.19	
64.61	235	-0.19	
64.60	235	-0.18	
64.58	236	-0.18	
64.57	237	-0.18	
64.56	237	-0.17	
64.54	238	-0.17	
64.53	239	-0.17	
64.51	239	-0.16	
64.50	240	-0.16	
64.48	241	-0.15	
64.47	242	-0.15	
64.46	242	-0.15	
64.44	243	-0.14	
64.43	244	-0.14	
64.41	244	-0.14	
64.40	245	-0.13	
64.38	246	-0.13	
64.37	246	-0.13	
64.36	247	-0.13	
64.34	248	-0.12	
64.33	249	-0.12	
64.31	249	-0.12	
64.30	250	-0.12	
64.28	251	-0.11	
64.27	251	-0.11	
64.26	252	-0.11	
64.24	253	-0.10	
64.23	253	-0.10	
64.21	254	-0.10	
64.20	255	-0.09	
64.18	256	-0.09	
64.17	256	-0.09	
64.15	257	-0.08	
64.14	258	-0.08	
64.12	258	-0.08	
64.11	259	-0.07	
64.10	260	-0.07	
64.08	260	-0.07	
64.07	261	-0.07	
64.05	262	-0.06	
64.04	263	-0.06	
64.02	263	-0.06	
64.01	264	-0.06	
63.99	265	-0.05	
63.98	265	-0.05	
63.96	266	-0.05	
63.95	267	-0.04	
63.94	267	-0.04	
63.92	268	-0.04	
63.91	269	-0.04	
63.89	270	-0.03	
63.88	270	-0.03	
63.86	271	-0.03	
63.85	272	-0.02	
63.83	272	-0.02	
63.82	273	-0.02	
63.81	274	-0.02	
63.79	274	-0.01	
63.78	275	-0.01	
63.76	276	-0.01	
63.75	277	-0.01	
63.73	277	-0.00	
63.72	278	-0.00	
63.70	279	-0.00	
63.69	279	0.00	
63.67	280	0.00	
63.66	281	0.01	
63.65	281	0.01	
63.63	282	0.01	
63.62	283	0.02	
63.60	284	0.02	
63.59	284	0.02	
63.57	285	0.02	
63.56	286	0.03	
63.54	286	0.03	
63.53	287	0.03	
63.51	288	0.03	
63.50	288	0.03	
63.49	289	0.04	
63.47	290	0.04	
63.46	291	0.04	
63.44	291	0.04	
63.43	292	0.05	
63.41	293	0.05	
63.40	293	0.05	
63.38	294	0.05	
63.37	295	0.05	
63.35	295	0.06	
63.34	296	0.06	
63.32	297	0.06	
63.31	298	0.06	
63.30	298	0.07	
63.28	299	0.07	
63.27	300	0.07	
63.25	300	0.07	
63.24	301	0.07	
63.22	302	0.07	
63.21	302	0.07	
63.19	303	0.08	
63.18	304	0.08	
63.16	305	0.08	
63.15	305	0.08	
63.14	306	0.08	
63.12	307	0.09	
63.11	307	0.09	
63.09	308	0.09	
63.08	309	0.09	
63.06	309	0.09	
63.05	310	0.09	
63.03	311	0.09	
63.02	312	0.10	
63.00	312	0.10	
62.99	313	0.10	
62.97	314	0.10	
62.96	314	0.10	
62.95	315	0.10	
62.93	316	0.11	
62.92	316	0.11	
62.90	317	0.11	
62.89	318	0.11	
62.87	319	0.11	
62.86	319	0.11	
62.84	320	0.12	
62.83	321	0.12	
62.81	321	0.12	
62.80	322	0.12	
62.78	323	0.12	
62.77	323	0.12	
62.76	324	0.12	
62.74	325	0.13	
62.73	326	0.13	
62.71	326	0.13	
62.70	327	0.13	
62.68	328	0.13	
62.67	328	0.13	
62.65	329	0.14	
62.64	330	0.14	
62.62	330	0.14	
62.61	331	0.14	
62.60	332	0.14	
62.58	333	0.14	
62.57	333	0.15	
62.55	334	0.15	
62.54	335	0.15	
62.52	335	0.15	
62.51	336	0.15	
62.49	337	0.15	
62.48	337	0.15	
62.46	338	0.15	
62.45	339	0.16	
62.44	340	0.16	
62.42	340	0.16	
62.41	341	0.16	
62.39	342	0.16	
62.38	342	0.16	
62.36	343	0.17	
62.35	344	0.17	
62.33	344	0.17	
62.32	345	0.17	
62.30	346	0.17	
62.29	347	0.17	
62.28	347	0.17	
62.26	348	0.17	
62.25	349	0.17	
62.23	349	0.18	
62.22	350	0.18	
62.20	351	0.18	
62.19	351	0.18	
62.17	352	0.18	
62.16	353	0.18	
62.14	354	0.19	
62.13	354	0.19	
62.12	355	0.19	
62.10	356	0.19	
62.09	356	0.19	
62.07	357	0.19	
62.06	358	0.19	
62.04	358	0.19	
62.03	359	0.19	
62.01	360	0.19	
62.00	361	0.19	
61.98	361	0.19	
61.97	362	0.20	
61.96	363	0.20	
61.94	363	0.20	
61.93	364	0.20	
61.91	365	0.20	
61.90	365	0.20	
61.88	366	0.20	
61.87	367	0.21	
61.85	368	0.21	
61.84	368	0.21	
61.82	369	0.21	
61.81	370	0.21	
61.79	370	0.21	
61.78	371	0.21	
61.77	372	0.21	
61.75	372	0.21	
61.74	373	0.21	
61.72	374	0.21	
61.71	375	0.21	
61.69	375	0.21	
61.68	376	0.21	
61.67	377	0.21	
61.65	377	0.22	
61.64	378	0.22	
61.62	379	0.22	
61.61	379	0.22	
61.59	380	0.22	
61.58	381	0.22	
61.56	382	0.22	
61.55	382	0.22	
61.53	383	0.22	
61.52	384	0.22	
61.51	384	0.22	
61.49	385	0.22	
61.48	386	0.23	
61.46	386	0.23	
61.45	387	0.23	
61.43	388	0.23	
61.42	389	0.23	
61.40	389	0.23	
61.39	390	0.23	
61.37	391	0.23	
61.36	391	0.23	
61.35	392	0.24	
61.33	393	0.24	
61.32	393	0.24	
61.30	394	0.24	
61.29	395	0.24	
61.27	396	0.24	
61.26	396	0.24	
61.25	397	0.24	
61.23	398	0.24	
61.22	398	0.24	
61.20	399	0.24	
61.19	400	0.24	
61.17	400	0.25	
61.16	401	0.25	
61.14	402	0.25	
61.13	403	0.25	
61.12	403	0.25	
61.10	404	0.25	
61.09	405	0.25	
61.07	405	0.25	
61.06	406	0.25	
61.04	407	0.25	
61.03	407	0.25	
61.01	408	0.25	
61.00	409	0.25	
60.98	410	0.25	
60.97	410	0.25	
60.95	411	0.26	
60.94	412	0.26	
60.93	412	0.26	
60.91	413	0.26	
60.90	414	0.26	
60.88	414	0.26	
60.87	415	0.26	
60.85	416	0.26	
60.84	417	0.26	
60.82	417	0.26	
60.81	418	0.26	
60.80	419	0.26	
60.78	419	0.27	
60.77	420	0.27	
60.75	421	0.27	
60.74	421	0.27	
60.73	422	0.27	
60.71	423	0.27	
60.70	424	0.27	
60.68	424	0.27	
60.67	425	0.27	
60.65	426	0.27	
60.64	426	0.27	
60.62	427	0.27	
60.61	428	0.27	
60.59	428	0.27	
60.58	429	0.27	
60.57	430	0.27	
60.55	431	0.27	
60.54	431	0.27	
60.52	432	0.27	
60.51	433	0.27	
60.49	433	0.27	
60.48	434	0.27	
60.46	435	0.27	
60.45	435	0.27	
60.44	436	0.27	
60.42	437	0.27	
60.41	438	0.27	
60.39	438	0.27	
60.38	439	0.28	
60.36	440	0.28	
60.35	440	0.28	
60.33	441	0.28	
60.32	442	0.28	
60.31	442	0.28	
60.29	443	0.28	
60.28	444	0.28	
60.26	445	0.28	
60.25	445	0.28	
60.23	446	0.28	
60.22	447	0.28	
60.21	447	0.28	
60.19	448	0.28	
60.18	449	0.28	
60.16	449	0.28	
60.15	450	0.28	
60.13	451	0.28	
60.12	452	0.28	
60.11	452	0.28	
60.09	453	0.29	
60.08	454	0.29	
60.06	454	0.29	
60.05	455	0.29	
60.03	456	0.29	
60.02	456	0.29	
60.00	457	0.29	
59.99	458	0.29	
59.98	459	0.29	
59.96	459	0.29	
59.95	460	0.29	
59.93	461	0.29	
59.92	461	0.29	
59.90	462	0.29	
59.89	463	0.29	
59.87	463	0.29	
59.86	464	0.29	
59.85	465	0.29	
59.83	466	0.29	
59.82	466	0.29	
59.80	467	0.29	
59.79	468	0.29	
59.78	468	0.29	
59.76	469	0.29	
59.75	470	0.29	
59.73	470	0.29	
59.72	471	0.29	
59.70	472	0.29	
59.69	473	0.29	
59.67	473	0.30	
59.66	474	0.29	
59.64	475	0.29	
59.63	475	0.29	
59.62	476	0.29	
59.60	477	0.29	
59.59	477	0.29	
59.57	478	0.29	
59.56	479	0.30	
59.54	480	0.30	
59.53	480	0.30	
59.52	481	0.30	
59.50	482	0.30	
59.49	482	0.30	
59.47	483	0.30	
59.46	484	0.30	
59.44	484	0.30	
59.43	485	0.30	
59.42	486	0.30	
59.40	487	0.30	
59.39	487	0.30	
59.37	488	0.30	
59.36	489	0.30	
59.34	489	0.30	
59.33	490	0.30	
59.32	491	0.30	
59.30	491	0.30	
59.29	492	0.30	
59.27	493	0.30	
59.26	494	0.30	
59.24	494	0.30	
59.23	495	0.30	
59.22	496	0.30	
59.20	496	0.30	
59.19	497	0.30	
59.17	498	0.30	
59.16	498	0.30	
59.14	499	0.31	
59.13	500	0.31	
59.11	501	0.31	
59.10	501	0.31	
59.09	502	0.31	
59.07	503	0.31	
59.06	503	0.31	
59.04	504	0.31	
59.03	505	0.31	
59.01	505	0.31	
59.00	506	0.31	
58.98	507	0.31	
58.97	508	0.31	
58.96	508	0.31	
58.94	509	0.31	
58.93	510	0.31	
58.91	510	0.31	
58.90	511	0.31	
58.89	512	0.31	
58.87	512	0.31	
58.86	513	0.31	
58.84	514	0.31	
58.83	515	0.31	
58.81	515	0.31	
58.80	516	0.31	
58.79	517	0.31	
58.77	517	0.31	
58.76	518	0.31	
58.74	519	0.31	
58.73	519	0.31	
58.71	520	0.31	
58.70	521	0.31	
58.69	522	0.31	
58.67	522	0.31	
58.66	523	0.31	
58.64	524	0.31	
58.63	524	0.31	
58.61	525	0.31	
58.60	526	0.31	
58.58	526	0.31	
58.57	527	0.31	
58.56	528	0.31	
58.54	529	0.31	
58.53	529	0.31	
58.51	530	0.31	
58.50	531	0.31	
58.48	531	0.31	
58.47	532	0.31	
58.46	533	0.31	
58.44	533	0.31	
58.43	534	0.31	
58.41	535	0.31	
58.40	536	0.31	
58.38	536	0.31	
58.37	537	0.31	
58.36	538	0.31	
58.34	538	0.31	
58.33	539	0.31	
58.31	540	0.31	
58.30	540	0.31	
58.28	541	0.31	
58.27	542	0.31	
58.26	543	0.31	
58.24	543	0.31	
58.23	544	0.31	
58.21	545	0.31	
58.20	545	0.31	
58.18	546	0.31	
58.17	547	0.31	
58.16	547	0.31	
58.14	548	0.32	
58.13	549	0.32	
58.11	550	0.32	
58.10	550	0.32	
58.08	551	0.31	
58.07	552	0.31	
58.06	552	0.32	
58.04	553	0.32	
58.03	554	0.32	
58.01	554	0.32	
58.00	555	0.32	
57.99	556	0.32	
57.97	557	0.32	
57.96	557	0.32	
57.94	558	0.32	
57.93	559	0.32	
57.91	559	0.32	
57.90	560	0.32	
57.88	561	0.32	
57.87	561	0.32	
57.86	562	0.32	
57.84	563	0.32	
57.83	564	0.32	
57.81	564	0.32	
57.80	565	0.32	
57.78	566	0.32	
57.77	566	0.32	
57.76	567	0.32	
57.74	568	0.32	
57.73	568	0.32	
57.71	569	0.32	
57.70	570	0.32	
57.69	571	0.32	
57.67	571	0.32	
57.66	572	0.32	
57.64	573	0.32	
57.63	573	0.32	
57.61	574	0.32	
57.60	575	0.32	
57.59	575	0.32	
57.57	576	0.32	
57.56	577	0.32	
57.54	578	0.32	
57.53	578	0.32	
57.51	579	0.33	
57.50	580	0.32	
57.49	580	0.32	
57.47	581	0.32	
57.46	582	0.32	
57.44	582	0.32	
57.43	583	0.32	
57.41	584	0.32	
57.40	585	0.32	
57.38	585	0.32	
57.37	586	0.32	
57.36	587	0.32	
57.34	587	0.32	
57.33	588	0.32	
57.31	589	0.32	
57.30	589	0.32	
57.29	590	0.32	
57.27	591	0.32	
57.26	592	0.32	
57.24	592	0.32	
57.23	593	0.32	
57.21	594	0.32	
57.20	594	0.32	
57.19	595	0.32	
57.17	596	0.32	
57.16	596	0.32	
57.14	597	0.32	
57.13	598	0.32	
57.12	599	0.32	
57.10	599	0.32	
57.09	600	0.32	
57.07	601	0.32	
57.06	601	0.32	
57.04	602	0.32	
57.03	603	0.32	
57.02	603	0.32	
57.00	604	0.32	
56.99	605	0.32	
56.97	606	0.32	
56.96	606	0.32	
56.94	607	0.32	
56.93	608	0.32	
56.91	608	0.32	
56.90	609	0.32	
56.89	610	0.32	
56.87	610	0.32	
56.86	611	0.33	
56.84	612	0.33	
56.83	613	0.33	
56.81	613	0.33	
56.80	614	0.33	
56.79	615	0.32	
56.77	615	0.32	
56.76	616	0.32	
56.74	617	0.32	
56.73	617	0.32	
56.72	618	0.32	
56.70	619	0.32	
56.69	620	0.32	
56.67	620	0.33	
56.66	621	0.33	
56.64	622	0.33	
56.63	622	0.33	
56.62	623	0.33	
56.60	624	0.33	
56.59	624	0.33	
56.57	625	0.33	
56.56	626	0.33	
56.55	627	0.33	
56.53	627	0.33	
56.52	628	0.33	
56.50	629	0.33	
56.49	629	0.33	
56.47	630	0.33	
56.46	631	0.33	
56.45	631	0.33	
56.43	632	0.33	
56.42	633	0.33	
56.40	634	0.33	
56.39	634	0.33	
56.37	635	0.33	
56.36	636	0.33	
56.35	636	0.33	
56.33	637	0.33	
56.32	638	0.33	
56.30	638	0.33	
56.29	639	0.33	
56.27	640	0.33	
56.26	641	0.33	
56.25	641	0.33	
56.23	642	0.33	
56.22	643	0.33	
56.20	643	0.33	
56.19	644	0.33	
56.17	645	0.33	
56.16	645	0.33	
56.15	646	0.33	
56.13	647	0.33	
56.12	648	0.33	
56.10	648	0.33	
56.09	649	0.33	
56.08	650	0.33	
56.06	650	0.33	
56.05	651	0.33	
56.03	652	0.33	
56.02	652	0.33	
56.00	653	0.33	
55.99	654	0.33	
55.98	655	0.33	
55.96	655	0.33	
55.95	656	0.33	
55.93	657	0.33	
55.92	657	0.33	
55.91	658	0.33	
55.89	659	0.33	
55.88	659	0.33	
55.86	660	0.33	
55.85	661	0.33	
55.83	662	0.33	
55.82	662	0.33	
55.80	663	0.33	
55.79	664	0.33	
55.78	664	0.33	
55.76	665	0.33	
55.75	666	0.33	
55.73	666	0.33	
55.72	667	0.33	
55.71	668	0.33	
55.69	669	0.33	
55.68	669	0.33	
55.66	670	0.33	
55.65	671	0.33	
55.63	671	0.33	
55.62	672	0.33	
55.61	673	0.33	
55.59	673	0.33	
55.58	674	0.33	
55.56	675	0.33	
55.55	676	0.33	
55.54	676	0.33	
55.52	677	0.33	
55.51	678	0.33	
55.49	678	0.33	
55.48	679	0.33	
55.46	680	0.33	
55.45	680	0.33	
55.44	681	0.33	
55.42	682	0.33	
55.41	683	0.33	
55.39	683	0.33	
55.38	684	0.33	
55.37	685	0.33	
55.35	685	0.33	
55.34	686	0.33	
55.32	687	0.33	
55.31	687	0.33	
55.29	688	0.33	
55.28	689	0.33	
55.27	690	0.33	
55.25	690	0.33	
55.24	691	0.33	
55.22	692	0.33	
55.21	692	0.33	
55.19	693	0.33	
55.18	694	0.33	
55.16	694	0.33	
55.15	695	0.33	
55.14	696	0.33	
55.12	697	0.33	
55.11	697	0.33	
55.09	698	0.33	
55.08	699	0.33	
55.07	699	0.33	
55.05	700	0.33	
55.04	701	0.33	
55.02	701	0.33	
55.01	702	0.33	
55.00	703	0.33	
54.98	704	0.33	
54.97	704	0.33	
54.95	705	0.33	
54.94	706	0.33	
54.92	706	0.33	
54.91	707	0.33	
54.90	708	0.33	
54.88	708	0.33	
54.87	709	0.33	
54.85	710	0.33	
54.84	711	0.33	
54.82	711	0.33	
54.81	712	0.33	
54.80	713	0.33	
54.78	713	0.33	
54.77	714	0.33	
54.75	715	0.33	
54.74	715	0.33	
54.73	716	0.33	
54.71	717	0.33	
54.70	718	0.33	
54.68	718	0.33	
54.67	719	0.33	
54.65	720	0.33	
54.64	720	0.33	
54.63	721	0.33	
54.61	722	0.33	
54.60	722	0.33	
54.58	723	0.33	
54.57	724	0.33	
54.56	725	0.33	
54.54	725	0.33	
54.53	726	0.33	
54.51	727	0.33	
54.50	727	0.33	
54.48	728	0.33	
54.47	729	0.33	
54.46	729	0.33	
54.44	730	0.33	
54.43	731	0.33	
54.41	732	0.33	
54.40	732	0.33	
54.38	733	0.33	
54.37	734	0.33	
54.36	734	0.33	
54.34	735	0.33	
54.33	736	0.33	
54.31	736	0.33	
54.30	737	0.33	
54.28	738	0.33	
54.27	739	0.33	
54.26	739	0.33	
54.24	740	0.33	
54.23	741	0.33	
54.21	741	0.33	
54.20	742	0.33	
54.19	743	0.33	
54.17	743	0.33	
54.16	744	0.33	
54.14	745	0.33	
54.13	746	0.33	
54.12	746	0.33	
54.10	747	0.33	
54.09	748	0.33	
54.07	748	0.33	
54.06	749	0.33	
54.04	750	0.33	
54.03	750	0.33	
54.02	751	0.33	
54.00	752	0.33	
53.99	753	0.33	
53.97	753	0.33	
53.96	754	0.32	
53.95	755	0.33	
53.93	755	0.33	
53.92	756	0.33	
53.90	757	0.33	
53.89	757	0.33	
53.87	758	0.32	
53.86	759	0.32	
53.84	760	0.32	
53.83	760	0.32	
53.82	761	0.32	
53.80	762	0.32	
53.79	762	0.32	
53.77	763	0.32	
53.76	764	0.32	
53.75	764	0.32	
53.73	765	0.32	
53.72	766	0.32	
53.70	767	0.33	
53.69	767	0.33	
53.68	768	0.32	
53.66	769	0.32	
53.65	769	0.32	
53.63	770	0.32	
53.62	771	0.32	
53.60	771	0.32	
53.59	772	0.32	
53.58	773	0.32	
53.56	774	0.32	
53.55	774	0.32	
53.53	775	0.32	
53.52	776	0.32	
53.50	776	0.32	
53.49	777	0.32	
53.48	778	0.32	
53.46	778	0.32	
53.45	779	0.32	
53.43	780	0.32	
53.42	781	0.32	
53.40	781	0.32	
53.39	782	0.32	
53.38	783	0.32	
53.36	783	0.32	
53.35	784	0.32	
53.33	785	0.32	
53.32	785	0.32	
53.31	786	0.32	
53.29	787	0.32	
53.28	788	0.32	
53.26	788	0.32	
53.25	789	0.32	
53.23	790	0.33	
53.22	790	0.33	
53.21	791	0.33	
53.19	792	0.32	
53.18	792	0.32	
53.16	793	0.32	
53.15	794	0.32	
53.14	795	0.32	
53.12	795	0.32	
53.11	796	0.32	
53.09	797	0.32	
53.08	797	0.33	
53.07	798	0.33	
53.05	799	0.33	
53.04	799	0.33	
53.02	800	0.32	
53.01	801	0.32	
52.99	802	0.32	
52.98	802	0.32	
52.96	803	0.32	
52.95	804	0.32	
52.94	804	0.32	
52.92	805	0.32	
52.91	806	0.32	
52.89	806	0.32	
52.88	807	0.32	
52.87	808	0.32	
52.85	809	0.32	
52.84	809	0.32	
52.82	810	0.32	
52.81	811	0.32	
52.79	811	0.32	
52.78	812	0.32	
52.77	813	0.32	
52.75	813	0.32	
52.74	814	0.32	
52.72	815	0.32	
52.71	816	0.32	
52.70	816	0.32	
52.68	817	0.32	
52.67	818	0.32	
52.65	818	0.32	
52.64	819	0.32	
52.63	820	0.32	
52.61	820	0.32	
52.60	821	0.32	
52.58	822	0.32	
52.57	823	0.32	
52.55	823	0.32	
52.54	824	0.32	
52.53	825	0.32	
52.51	825	0.32	
52.50	826	0.32	
52.48	827	0.32	
52.47	827	0.32	
52.45	828	0.32	
52.44	829	0.32	
52.42	830	0.32	
52.41	830	0.32	
52.40	831	0.32	
52.38	832	0.32	
52.37	832	0.32	
52.35	833	0.32	
52.34	834	0.32	
52.33	834	0.32	
52.31	835	0.32	
52.30	836	0.32	
52.28	837	0.32	
52.27	837	0.32	
52.26	838	0.32	
52.24	839	0.32	
52.23	839	0.32	
52.21	840	0.32	
52.20	841	0.32	
52.19	841	0.32	
52.17	842	0.32	
52.16	843	0.32	
52.14	844	0.32	
52.13	844	0.32	
52.11	845	0.32	
52.10	846	0.32	
52.09	846	0.32	
52.07	847	0.32	
52.06	848	0.32	
52.04	848	0.32	
52.03	849	0.32	
52.02	850	0.32	
52.00	851	0.32	
51.99	851	0.32	
51.97	852	0.32	
51.96	853	0.32	
51.94	853	0.32	
51.93	854	0.32	
51.92	855	0.32	
51.90	855	0.32	
51.89	856	0.32	
51.87	857	0.32	
51.86	858	0.32	
51.84	858	0.32	
51.83	859	0.32	
51.82	860	0.32	
51.80	860	0.32	
51.79	861	0.32	
51.77	862	0.32	
51.76	862	0.32	
51.75	863	0.32	
51.73	864	0.32	
51.72	865	0.32	
51.70	865	0.32	
51.69	866	0.32	
51.68	867	0.32	
51.66	867	0.32	
51.65	868	0.32	
51.63	869	0.32	
51.62	869	0.32	
51.60	870	0.32	
51.59	871	0.32	
51.58	872	0.32	
51.56	872	0.32	
51.55	873	0.32	
51.53	874	0.32	
51.52	874	0.32	
51.50	875	0.32	
51.49	876	0.32	
51.48	876	0.32	
51.46	877	0.32	
51.45	878	0.32	
51.43	879	0.32	
51.42	879	0.32	
51.41	880	0.32	
51.39	881	0.32	
51.38	881	0.32	
51.36	882	0.32	
51.35	883	0.32	
51.33	883	0.32	
51.32	884	0.32	
51.31	885	0.32	
51.29	886	0.32	
51.28	886	0.32	
51.26	887	0.32	
51.25	888	0.32	
51.24	888	0.32	
51.22	889	0.32	
51.21	890	0.32	
51.19	890	0.32	
51.18	891	0.32	
51.16	892	0.32	
51.15	893	0.32	
51.14	893	0.32	
51.12	894	0.32	
51.11	895	0.31	
51.09	895	0.31	
51.08	896	0.31	
51.06	897	0.31	
51.05	897	0.32	
51.04	898	0.32	
51.02	899	0.32	
51.01	900	0.32	
50.99	900	0.32	
50.98	901	0.32	
50.97	902	0.31	
50.95	902	0.31	
50.94	903	0.31	
50.92	904	0.31	
50.91	904	0.31	
50.90	905	0.31	
50.88	906	0.31	
50.87	907	0.31	
50.85	907	0.31	
50.84	908	0.31	
50.82	909	0.31	
50.81	909	0.31	
50.80	910	0.31	
50.78	911	0.31	
50.77	911	0.31	
50.75	912	0.31	
50.74	913	0.31	
50.72	914	0.31	
50.71	914	0.31	
50.70	915	0.31	
50.68	916	0.31	
50.67	916	0.32	
50.65	917	0.32	
50.64	918	0.32	
50.63	918	0.31	
50.61	919	0.31	
50.60	920	0.31	
50.58	921	0.31	
50.57	921	0.31	
50.55	922	0.31	
50.54	923	0.31	
50.53	923	0.31	
50.51	924	0.31	
50.50	925	0.31	
50.48	925	0.31	
50.47	926	0.31	
50.46	927	0.31	
50.44	928	0.31	
50.43	928	0.32	
50.41	929	0.32	
50.40	930	0.32	
50.39	930	0.32	
50.37	931	0.31	
50.36	932	0.31	
50.34	932	0.31	
50.33	933	0.31	
50.31	934	0.31	
50.30	935	0.31	
50.29	935	0.31	
50.27	936	0.31	
50.26	937	0.31	
50.24	937	0.31	
50.23	938	0.31	
50.21	939	0.31	
50.20	939	0.31	
50.19	940	0.31	
50.17	941	0.31	
50.16	942	0.31	
50.14	942	0.31	
50.13	943	0.31	
50.12	944	0.31	
50.10	944	0.31	
50.09	945	0.31	
50.07	946	0.31	
50.06	946	0.31	
50.04	947	0.31	
50.03	948	0.31	
50.02	949	0.31	
50.00	949	0.31	
49.99	950	0.31	
49.97	951	0.31	
49.96	951	0.31	
49.95	952	0.31	
49.93	953	0.31	
49.92	953	0.31	
49.90	954	0.31	
49.89	955	0.31	
49.87	956	0.31	
49.86	956	0.31	
49.85	957	0.31	
49.83	958	0.31	
49.82	958	0.31	
49.80	959	0.31	
49.79	960	0.31	
49.77	960	0.31	
49.76	961	0.31	
49.75	962	0.31	
49.73	963	0.31	
49.72	963	0.31	
49.70	964	0.31	
49.69	965	0.31	
49.68	965	0.31	
49.66	966	0.31	
49.65	967	0.31	
49.63	967	0.31	
49.62	968	0.31	
49.61	969	0.31	
49.59	970	0.31	
49.58	970	0.31	
49.56	971	0.31	
49.55	972	0.31	
49.53	972	0.31	
49.52	973	0.31	
49.51	974	0.31	
49.49	974	0.31	
49.48	975	0.31	
49.46	976	0.31	
49.45	977	0.31	
49.43	977	0.31	
49.42	978	0.31	
49.41	979	0.31	
49.39	979	0.31	
49.38	980	0.31	
49.36	981	0.31	
49.35	981	0.31	
49.34	982	0.31	
49.32	983	0.31	
49.31	984	0.31	
49.29	984	0.31	
49.28	985	0.31	
49.26	986	0.31	
49.25	986	0.31	
49.24	987	0.31	
49.22	988	0.31	
49.21	988	0.31	
49.19	989	0.31	
49.18	990	0.31	
49.17	991	0.31	
49.15	991	0.31	
49.14	992	0.31	
49.12	993	0.31	
49.11	993	0.31	
49.10	994	0.31	
49.08	995	0.31	
49.07	995	0.31	
49.05	996	0.31	
49.04	997	0.31	
49.02	998	0.31	
49.01	998	0.31	
49.00	999	0.31	
48.98	1000	0.31	
48.97	1000	0.31	
48.95	1001	0.31	
48.94	1002	0.31	
48.92	1002	0.31	
48.91	1003	0.31	
48.90	1004	0.31	
48.88	1005	0.31	
48.87	1005	0.31	
48.85	1006	0.31	
48.84	1007	0.31	
48.82	1007	0.31	
48.81	1008	0.31	
48.80	1009	0.31	
48.78	1009	0.31	
48.77	1010	0.31	
48.75	1011	0.31	
48.74	1012	0.31	
48.73	1012	0.31	
48.71	1013	0.31	
48.70	1014	0.31	
48.68	1014	0.31	
48.67	1015	0.31	
48.66	1016	0.31	
48.64	1016	0.31	
48.63	1017	0.31	
48.61	1018	0.31	
48.60	1019	0.31	
48.59	1019	0.31	
48.57	1020	0.31	
48.56	1021	0.31	
48.54	1021	0.31	
48.53	1022	0.31	
48.51	1023	0.31	
48.50	1023	0.31	
48.49	1024	0.31	
48.47	1025	0.31	
48.46	1026	0.31	
48.44	1026	0.31	
48.43	1027	0.31	
48.41	1028	0.31	
48.40	1028	0.31	
48.39	1029	0.31	
48.37	1030	0.31	
48.36	1030	0.31	
48.34	1031	0.31	
48.33	1032	0.31	
48.32	1033	0.31	
48.30	1033	0.30	
48.29	1034	0.30	
48.27	1035	0.30	
48.26	1035	0.30	
48.24	1036	0.30	
48.23	1037	0.30	
48.22	1037	0.30	
48.20	1038	0.31	
48.19	1039	0.31	
48.17	1040	0.31	
48.16	1040	0.31	
48.15	1041	0.31	
48.13	1042	0.31	
48.12	1042	0.31	
48.10	1043	0.31	
48.09	1044	0.31	
48.07	1044	0.31	
48.06	1045	0.31	
48.05	1046	0.31	
48.03	1047	0.31	
48.02	1047	0.31	
48.00	1048	0.31	
47.99	1049	0.31	
47.97	1049	0.31	
47.96	1050	0.31	
47.95	1051	0.30	
47.93	1051	0.30	
47.92	1052	0.30	
47.90	1053	0.30	
47.89	1054	0.30	
47.88	1054	0.30	
47.86	1055	0.30	
47.85	1056	0.30	
47.83	1056	0.30	
47.82	1057	0.30	
47.81	1058	0.30	
47.79	1058	0.30	
47.78	1059	0.30	
47.76	1060	0.30	
47.75	1061	0.31	
47.73	1061	0.31	
47.72	1062	0.31	
47.71	1063	0.31	
47.69	1063	0.30	
47.68	1064	0.30	
47.66	1065	0.30	
47.65	1065	0.30	
47.64	1066	0.30	
47.62	1067	0.30	
47.61	1068	0.30	
47.59	1068	0.30	
47.58	1069	0.30	
47.56	1070	0.30	
47.55	1070	0.30	
47.54	1071	0.30	
47.52	1072	0.30	
47.51	1072	0.30	
47.49	1073	0.30	
47.48	1074	0.30	
47.46	1075	0.30	
47.45	1075	0.30	
47.44	1076	0.30	
47.42	1077	0.30	
47.41	1077	0.30	
47.39	1078	0.30	
47.38	1079	0.30	
47.37	1079	0.30	
47.35	1080	0.30	
47.34	1081	0.30	
47.32	1082	0.30	
47.31	1082	0.31	
47.30	1083	0.31	
47.28	1084	0.31	
47.27	1084	0.31	
47.25	1085	0.31	
47.24	1086	0.30	
47.22	1086	0.30	
47.21	1087	0.30	
47.20	1088	0.30	
47.18	1089	0.30	
47.17	1089	0.30	
47.15	1090	0.30	
47.14	1091	0.30	
47.12	1091	0.30	
47.11	1092	0.30	
47.10	1093	0.30	
47.08	1093	0.30	
47.07	1094	0.30	
47.05	1095	0.30	
47.04	1096	0.30	
47.03	1096	0.30	
47.01	1097	0.30	
47.00	1098	0.30	
46.98	1098	0.30	
46.97	1099	0.30	
46.96	1100	0.30	
46.94	1100	0.30	
46.93	1101	0.30	
46.91	1102	0.30	
46.90	1103	0.30	
46.89	1103	0.30	
46.87	1104	0.30	
46.86	1105	0.30	
46.84	1105	0.30	
46.83	1106	0.30	
46.81	1107	0.30	
46.80	1107	0.30	
46.78	1108	0.30	
46.77	1109	0.30	
46.76	1110	0.30	
46.74	1110	0.30	
46.73	1111	0.30	
46.71	1112	0.30	
46.70	1112	0.30	
46.68	1113	0.30	
46.67	1114	0.30	
46.66	1114	0.30	
46.64	1115	0.30	
46.63	1116	0.30	
46.61	1117	0.30	
46.60	1117	0.30	
46.59	1118	0.30	
46.57	1119	0.30	
46.56	1119	0.30	
46.54	1120	0.30	
46.53	1121	0.30	
46.52	1121	0.30	
46.50	1122	0.30	
46.49	1123	0.30	
46.47	1124	0.30	
46.46	1124	0.30	
46.45	1125	0.30	
46.43	1126	0.30	
46.42	1126	0.30	
46.40	1127	0.30	
46.39	1128	0.30	
46.37	1128	0.30	
46.36	1129	0.30	
46.35	1130	0.30	
46.33	1131	0.30	
46.32	1131	0.30	
46.30	1132	0.30	
46.29	1133	0.30	
46.27	1133	0.30	
46.26	1134	0.30	
46.25	1135	0.30	
46.23	1135	0.30	
46.22	1136	0.30	
46.20	1137	0.30	
46.19	1138	0.30	
46.17	1138	0.30	
46.16	1139	0.30	
46.15	1140	0.30	
46.13	1140	0.30	
46.12	1141	0.30	
46.11	1142	0.30	
46.09	1142	0.30	
46.08	1143	0.30	
46.06	1144	0.30	
46.05	1145	0.30	
46.03	1145	0.30	
46.02	1146	0.30	
46.01	1147	0.30	
45.99	1147	0.30	
45.98	1148	0.30	
45.96	1149	0.29	
45.95	1149	0.29	
45.93	1150	0.29	
45.92	1151	0.29	
45.91	1152	0.29	
45.89	1152	0.29	
45.88	1153	0.29	
45.86	1154	0.29	
45.85	1154	0.29	
45.83	1155	0.30	
45.82	1156	0.30	
45.81	1156	0.30	
45.79	1157	0.30	
45.78	1158	0.30	
45.76	1159	0.30	
45.75	1159	0.30	
45.74	1160	0.30	
45.72	1161	0.30	
45.71	1161	0.30	
45.69	1162	0.30	
45.68	1163	0.30	
45.66	1163	0.30	
45.65	1164	0.30	
45.64	1165	0.30	
45.62	1166	0.30	
45.61	1166	0.29	
45.59	1167	0.29	
45.58	1168	0.29	
45.57	1168	0.29	
45.55	1169	0.29	
45.54	1170	0.29	
45.52	1170	0.29	
45.51	1171	0.29	
45.50	1172	0.29	
45.48	1173	0.29	
45.47	1173	0.29	
45.45	1174	0.29	
45.44	1175	0.29	
45.42	1175	0.29	
45.41	1176	0.29	
45.40	1177	0.29	
45.38	1177	0.29	
45.37	1178	0.30	
45.35	1179	0.30	
45.34	1180	0.29	
45.33	1180	0.29	
45.31	1181	0.29	
45.30	1182	0.29	
45.28	1182	0.29	
45.27	1183	0.29	
45.25	1184	0.29	
45.24	1184	0.29	
45.23	1185	0.29	
45.21	1186	0.29	
45.20	1187	0.29	
45.18	1187	0.29	
45.17	1188	0.29	
45.15	1189	0.29	
45.14	1189	0.29	
45.13	1190	0.29	
45.11	1191	0.29	
45.10	1191	0.29	
45.08	1192	0.29	
45.07	1193	0.29	
45.06	1194	0.29	
45.04	1194	0.29	
45.03	1195	0.29	
45.01	1196	0.29	
45.00	1196	0.29	
44.99	1197	0.29	
44.97	1198	0.29	
44.96	1198	0.29	
44.94	1199	0.29	
44.93	1200	0.29	
44.91	1201	0.29	
44.90	1201	0.29	
44.89	1202	0.29	
44.87	1203	0.29	
44.86	1203	0.29	
44.84	1204	0.29	
44.83	1205	0.29	
44.82	1205	0.29	
44.80	1206	0.29	
44.79	1207	0.29	
44.77	1208	0.29	
44.76	1208	0.29	
44.74	1209	0.29	
44.73	1210	0.29	
44.72	1210	0.29	
44.70	1211	0.29	
44.69	1212	0.29	
44.67	1212	0.29	
44.66	1213	0.29	
44.65	1214	0.29	
44.63	1215	0.29	
44.62	1215	0.29	
44.60	1216	0.29	
44.59	1217	0.29	
44.58	1217	0.29	
44.56	1218	0.29	
44.55	1219	0.29	
44.53	1219	0.29	
44.52	1220	0.29	
44.50	1221	0.29	
44.49	1222	0.29	
44.48	1222	0.29	
44.46	1223	0.29	
44.45	1224	0.29	
44.43	1224	0.29	
44.42	1225	0.29	
44.40	1226	0.29	
44.39	1226	0.29	
44.38	1227	0.29	
44.36	1228	0.29	
44.35	1229	0.29	
44.33	1229	0.29	
44.32	1230	0.29	
44.30	1231	0.29	
44.29	1231	0.29	
44.28	1232	0.29	
44.26	1233	0.29	
44.25	1233	0.29	
44.23	1234	0.29	
44.22	1235	0.29	
44.21	1236	0.29	
44.19	1236	0.29	
44.18	1237	0.29	
44.16	1238	0.29	
44.15	1238	0.29	
44.14	1239	0.29	
44.12	1240	0.29	
44.11	1240	0.29	
44.09	1241	0.29	
44.08	1242	0.29	
44.07	1243	0.29	
44.05	1243	0.29	
44.04	1244	0.29	
44.02	1245	0.29	
44.01	1245	0.29	
43.99	1246	0.29	
43.98	1247	0.29	
43.97	1247	0.29	
43.95	1248	0.29	
43.94	1249	0.29	
43.92	1250	0.29	
43.91	1250	0.29	
43.89	1251	0.29	
43.88	1252	0.29	
43.87	1252	0.29	
43.85	1253	0.29	
43.84	1254	0.28	
43.82	1254	0.29	
43.81	1255	0.29	
43.79	1256	0.29	
43.78	1257	0.29	
43.77	1257	0.29	
43.75	1258	0.29	
43.74	1259	0.29	
43.72	1259	0.29	
43.71	1260	0.29	
43.69	1261	0.29	
43.68	1261	0.29	
43.67	1262	0.29	
43.65	1263	0.29	
43.64	1264	0.29	
43.62	1264	0.29	
43.61	1265	0.29	
43.60	1266	0.29	
43.58	1266	0.29	
43.57	1267	0.29	
43.56	1268	0.29	
43.54	1268	0.29	
43.53	1269	0.29	
43.51	1270	0.29	
43.50	1271	0.29	
43.48	1271	0.29	
43.47	1272	0.28	
43.46	1273	0.28	
43.44	1273	0.28	
43.43	1274	0.28	
43.41	1275	0.28	
43.40	1275	0.29	
43.39	1276	0.29	
43.37	1277	0.29	
43.36	1278	0.29	
43.34	1278	0.29	
43.33	1279	0.28	
43.31	1280	0.28	
43.30	1280	0.28	
43.29	1281	0.28	
43.27	1282	0.28	
43.26	1282	0.28	
43.24	1283	0.28	
43.23	1284	0.28	
43.21	1285	0.28	
43.20	1285	0.28	
43.19	1286	0.28	
43.17	1287	0.28	
43.16	1287	0.28	
43.14	1288	0.28	
43.13	1289	0.28	
43.11	1289	0.28	
43.10	1290	0.28	
43.09	1291	0.28	
43.07	1292	0.28	
43.06	1292	0.28	
43.04	1293	0.28	
43.03	1294	0.28	
43.02	1294	0.28	
43.00	1295	0.28	
42.99	1296	0.28	
42.97	1296	0.28	
42.96	1297	0.28	
42.95	1298	0.28	
42.93	1299	0.28	
42.92	1299	0.28	
42.90	1300	0.28	
42.89	1301	0.28	
42.87	1301	0.28	
42.86	1302	0.28	
42.85	1303	0.28	
42.83	1303	0.28	
42.82	1304	0.28	
42.80	1305	0.28	
42.79	1306	0.28	
42.77	1306	0.28	
42.76	1307	0.28	
42.75	1308	0.28	
42.73	1308	0.29	
42.72	1309	0.29	
42.70	1310	0.29	
42.69	1310	0.28	
42.68	1311	0.28	
42.66	1312	0.28	
42.65	1313	0.28	
42.63	1313	0.28	
42.62	1314	0.28	
42.61	1315	0.28	
42.59	1315	0.28	
42.58	1316	0.28	
42.56	1317	0.28	
42.55	1317	0.28	
42.53	1318	0.28	
42.52	1319	0.28	
42.51	1320	0.28	
42.49	1320	0.28	
42.48	1321	0.28	
42.46	1322	0.28	
42.45	1322	0.28	
42.43	1323	0.28	
42.42	1324	0.28	
42.41	1324	0.28	
42.39	1325	0.28	
42.38	1326	0.28	
42.36	1327	0.28	
42.35	1327	0.28	
42.34	1328	0.28	
42.32	1329	0.28	
42.31	1329	0.28	
42.29	1330	0.28	
42.28	1331	0.28	
42.26	1331	0.28	
42.25	1332	0.28	
42.24	1333	0.28	
42.22	1334	0.28	
42.21	1334	0.28	
42.19	1335	0.28	
42.18	1336	0.28	
42.17	1336	0.28	
42.15	1337	0.28	
42.14	1338	0.28	
42.12	1338	0.28	
42.11	1339	0.28	
42.10	1340	0.28	
42.08	1341	0.28	
42.07	1341	0.28	
42.05	1342	0.28	
42.04	1343	0.28	
42.02	1343	0.28	
42.01	1344	0.28	
42.00	1345	0.28	
41.98	1345	0.28	
41.97	1346	0.28	
41.95	1347	0.28	
41.94	1348	0.28	
41.93	1348	0.28	
41.91	1349	0.28	
41.90	1350	0.28	
41.88	1350	0.28	
41.87	1351	0.28	
41.85	1352	0.28	
41.84	1352	0.28	
41.83	1353	0.28	
41.81	1354	0.28	
41.80	1355	0.28	
41.78	1355	0.28	
41.77	1356	0.28	
41.76	1357	0.28	
41.74	1357	0.28	
41.73	1358	0.28	
41.71	1359	0.28	
41.70	1359	0.28	
41.68	1360	0.28	
41.67	1361	0.28	
41.66	1362	0.28	
41.64	1362	0.28	
41.63	1363	0.28	
41.61	1364	0.28	
41.60	1364	0.28	
41.59	1365	0.28	
41.57	1366	0.28	
41.56	1366	0.28	
41.54	1367	0.28	
41.53	1368	0.28	
41.52	1369	0.28	
41.50	1369	0.28	
41.49	1370	0.28	
41.47	1371	0.28	
41.46	1371	0.28	
41.44	1372	0.28	
41.43	1373	0.28	
41.42	1373	0.28	
41.40	1374	0.28	
41.39	1375	0.28	
41.37	1376	0.28	
41.36	1376	0.28	
41.34	1377	0.28	
41.33	1378	0.28	
41.32	1378	0.28	
41.30	1379	0.28	
41.29	1380	0.28	
41.27	1380	0.28	
41.26	1381	0.28	
41.25	1382	0.28	
41.23	1383	0.28	
41.22	1383	0.28	
41.20	1384	0.28	
41.19	1385	0.28	
41.17	1385	0.28	
41.16	1386	0.28	
41.15	1387	0.28	
41.13	1387	0.28	
41.12	1388	0.28	
41.10	1389	0.28	
41.09	1390	0.28	
41.08	1390	0.28	
41.06	1391	0.28	
41.05	1392	0.28	
41.03	1392	0.28	
41.02	1393	0.28	
41.00	1394	0.28	
40.99	1394	0.28	
40.98	1395	0.28	
40.96	1396	0.28	
40.95	1397	0.28	
40.93	1397	0.28	
40.92	1398	0.28	
40.91	1399	0.28	
40.89	1399	0.28	
40.88	1400	0.28	
40.86	1401	0.28	
40.85	1401	0.28	
40.83	1402	0.28	
40.82	1403	0.28	
40.81	1404	0.27	
40.79	1404	0.27	
40.78	1405	0.27	
40.76	1406	0.28	
40.75	1406	0.28	
40.74	1407	0.28	
40.72	1408	0.28	
40.71	1408	0.28	
40.69	1409	0.27	
40.68	1410	0.27	
40.66	1411	0.27	
40.65	1411	0.27	
40.64	1412	0.27	
40.62	1413	0.27	
40.61	1413	0.27	
40.59	1414	0.27	
40.58	1415	0.27	
40.57	1415	0.27	
40.55	1416	0.27	
40.54	1417	0.27	
40.52	1418	0.27	
40.51	1418	0.27	
40.50	1419	0.27	
40.48	1420	0.27	
40.47	1420	0.27	
40.45	1421	0.27	
40.44	1422	0.27	
40.42	1422	0.27	
40.41	1423	0.27	
40.40	1424	0.27	
40.38	1425	0.27	
40.37	1425	0.27	
40.35	1426	0.27	
40.34	1427	0.27	
40.33	1427	0.27	
40.31	1428	0.27	
40.30	1429	0.27	
40.28	1429	0.27	
40.27	1430	0.27	
40.25	1431	0.27	
40.24	1432	0.27	
40.23	1432	0.27	
40.21	1433	0.27	
40.20	1434	0.27	
40.18	1434	0.27	
40.17	1435	0.27	
40.15	1436	0.28	
40.14	1436	0.28	
40.13	1437	0.28	
40.11	1438	0.27	
40.10	1439	0.27	
40.08	1439	0.27	
40.07	1440	0.27	
40.06	1441	0.27	
40.04	1441	0.27	
40.03	1442	0.27	
40.01	1443	0.27	
40.00	1443	0.27	
39.99	1444	0.27	
39.97	1445	0.27	
39.96	1446	0.27	
39.94	1446	0.27	
39.93	1447	0.27	
39.91	1448	0.27	
39.90	1448	0.27	
39.89	1449	0.27	
39.87	1450	0.27	
39.86	1450	0.27	
39.84	1451	0.27	
39.83	1452	0.28	
39.81	1453	0.28	
39.80	1453	0.28	
39.79	1454	0.28	
39.77	1455	0.28	
39.76	1455	0.27	
39.74	1456	0.27	
39.73	1457	0.27	
39.72	1457	0.27	
39.70	1458	0.27	
39.69	1459	0.27	
39.67	1460	0.27	
39.66	1460	0.27	
39.65	1461	0.27	
39.63	1462	0.27	
39.62	1462	0.27	
39.60	1463	0.27	
39.59	1464	0.27	
39.57	1464	0.27	
39.56	1465	0.27	
39.55	1466	0.27	
39.53	1467	0.27	
39.52	1467	0.27	
39.50	1468	0.27	
39.49	1469	0.27	
39.48	1469	0.27	
39.46	1470	0.27	
39.45	1471	0.27	
39.43	1471	0.27	
39.42	1472	0.27	
39.40	1473	0.27	
39.39	1474	0.27	
39.38	1474	0.27	
39.36	1475	0.27	
39.35	1476	0.27	
39.33	1476	0.27	
39.32	1477	0.27	
39.30	1478	0.27	
39.29	1478	0.27	
39.28	1479	0.27	
39.26	1480	0.27	
39.25	1481	0.27	
39.23	1481	0.27	
39.22	1482	0.27	
39.20	1483	0.27	
39.19	1483	0.27	
39.18	1484	0.27	
39.16	1485	0.27	
39.15	1485	0.27	
39.13	1486	0.27	
39.12	1487	0.27	
39.11	1488	0.27	
39.09	1488	0.27	
39.08	1489	0.27	
39.06	1490	0.27	
39.05	1490	0.27	
39.04	1491	0.27	
39.02	1492	0.27	
39.01	1492	0.27	
38.99	1493	0.27	
38.98	1494	0.27	
38.97	1495	0.27	
38.95	1495	0.27	
38.94	1496	0.27	
38.92	1497	0.27	
38.91	1497	0.27	
38.89	1498	0.27	
38.88	1499	0.27	
38.87	1499	0.27	
38.85	1500	0.27	
38.84	1501	0.27	
38.82	1502	0.27	
38.81	1502	0.27	
38.80	1503	0.27	
38.78	1504	0.27	
38.77	1504	0.27	
38.75	1505	0.27	
38.74	1506	0.27	
38.72	1506	0.27	
38.71	1507	0.27	
38.70	1508	0.27	
38.68	1509	0.27	
38.67	1509	0.27	
38.65	1510	0.27	
38.64	1511	0.27	
38.62	1511	0.27	
38.61	1512	0.27	
38.60	1513	0.27	
38.58	1513	0.27	
38.57	1514	0.27	
38.55	1515	0.27	
38.54	1516	0.27	
38.53	1516	0.27	
38.51	1517	0.27	
38.50	1518	0.27	
38.48	1518	0.27	
38.47	1519	0.27	
38.46	1520	0.27	
38.44	1520	0.27	
38.43	1521	0.27	
38.41	1522	0.27	
38.40	1523	0.27	
38.38	1523	0.27	
38.37	1524	0.27	
38.36	1525	0.27	
38.34	1525	0.27	
38.33	1526	0.27	
38.31	1527	0.27	
38.30	1527	0.27	
38.29	1528	0.26	
38.27	1529	0.26	
38.26	1530	0.26	
38.24	1530	0.26	
38.23	1531	0.26	
38.22	1532	0.26	
38.20	1532	0.26	
38.19	1533	0.26	
38.17	1534	0.26	
38.16	1534	0.27	
38.14	1535	0.27	
38.13	1536	0.27	
38.12	1537	0.27	
38.10	1537	0.27	
38.09	1538	0.27	
38.07	1539	0.27	
38.06	1539	0.26	
38.04	1540	0.26	
38.03	1541	0.26	
38.02	1541	0.26	
38.00	1542	0.26	
37.99	1543	0.26	
37.97	1544	0.26	
37.96	1544	0.26	
37.95	1545	0.26	
37.93	1546	0.26	
37.92	1546	0.26	
37.90	1547	0.26	
37.89	1548	0.26	
37.88	1548	0.26	
37.86	1549	0.26	
37.85	1550	0.27	
37.83	1551	0.27	
37.82	1551	0.27	
37.80	1552	0.27	
37.79	1553	0.27	
37.78	1553	0.27	
37.76	1554	0.27	
37.75	1555	0.26	
37.73	1555	0.26	
37.72	1556	0.26	
37.70	1557	0.26	
37.69	1558	0.26	
37.68	1558	0.26	
37.66	1559	0.26	
37.65	1560	0.26	
37.63	1560	0.26	
37.62	1561	0.26	
37.61	1562	0.26	
37.59	1562	0.26	
37.58	1563	0.26	
37.56	1564	0.26	
37.55	1565	0.26	
37.54	1565	0.26	
37.52	1566	0.26	
37.51	1567	0.26	
37.49	1567	0.26	
37.48	1568	0.26	
37.46	1569	0.26	
37.45	1569	0.26	
37.44	1570	0.26	
37.42	1571	0.26	
37.41	1572	0.26	
37.39	1572	0.26	
37.38	1573	0.27	
37.37	1574	0.27	
37.35	1574	0.27	
37.34	1575	0.27	
37.32	1576	0.27	
37.31	1576	0.27	
37.29	1577	0.27	
37.28	1578	0.27	
37.27	1579	0.27	
37.25	1579	0.27	
37.24	1580	0.27	
37.22	1581	0.27	
37.21	1581	0.27	
37.19	1582	0.27	
37.18	1583	0.27	
37.17	1583	0.27	
37.15	1584	0.26	
37.14	1585	0.26	
37.12	1586	0.26	
37.11	1586	0.26	
37.10	1587	0.26	
37.08	1588	0.26	
37.07	1588	0.26	
37.05	1589	0.26	
37.04	1590	0.26	
37.03	1590	0.26	
37.01	1591	0.26	
37.00	1592	0.26	
36.98	1593	0.26	
36.97	1593	0.26	
36.95	1594	0.26	
36.94	1595	0.26	
36.93	1595	0.26	
36.91	1596	0.26	
36.90	1597	0.26	
36.88	1597	0.26	
36.87	1598	0.26	
36.85	1599	0.26	
36.84	1600	0.26	
36.83	1600	0.26	
36.81	1601	0.26	
36.80	1602	0.26	
36.78	1602	0.26	
36.77	1603	0.26	
36.76	1604	0.26	
36.74	1604	0.26	
36.73	1605	0.26	
36.71	1606	0.26	
36.70	1607	0.26	
36.69	1607	0.26	
36.67	1608	0.26	
36.66	1609	0.26	
36.64	1609	0.26	
36.63	1610	0.26	
36.61	1611	0.26	
36.60	1611	0.26	
36.59	1612	0.26	
36.57	1613	0.26	
36.56	1614	0.26	
36.54	1614	0.26	
36.53	1615	0.26	
36.52	1616	0.26	
36.50	1616	0.26	
36.49	1617	0.26	
36.47	1618	0.26	
36.46	1618	0.26	
36.44	1619	0.26	
36.43	1620	0.26	
36.42	1621	0.26	
36.40	1621	0.26	
36.39	1622	0.26	
36.37	1623	0.26	
36.36	1623	0.26	
36.35	1624	0.26	
36.33	1625	0.26	
36.32	1625	0.26	
36.30	1626	0.26	
36.29	1627	0.26	
36.27	1628	0.26	
36.26	1628	0.26	
36.25	1629	0.26	
36.23	1630	0.26	
36.22	1630	0.26	
36.20	1631	0.26	
36.19	1632	0.26	
36.18	1632	0.26	
36.16	1633	0.26	
36.15	1634	0.26	
36.13	1635	0.26	
36.12	1635	0.26	
36.11	1636	0.26	
36.09	1637	0.26	
36.08	1637	0.26	
36.06	1638	0.26	
36.05	1639	0.26	
36.03	1639	0.26	
36.02	1640	0.26	
36.01	1641	0.26	
35.99	1642	0.26	
35.98	1642	0.26	
35.96	1643	0.26	
35.95	1644	0.26	
35.94	1644	0.26	
35.92	1645	0.26	
35.91	1646	0.26	
35.89	1646	0.26	
35.88	1647	0.26	
35.86	1648	0.26	
35.85	1649	0.26	
35.84	1649	0.26	
35.82	1650	0.26	
35.81	1651	0.26	
35.79	1651	0.26	
35.78	1652	0.26	
35.76	1653	0.26	
35.75	1653	0.26	
35.74	1654	0.26	
35.72	1655	0.26	
35.71	1656	0.26	
35.69	1656	0.26	
35.68	1657	0.26	
35.67	1658	0.26	
35.65	1658	0.26	
35.64	1659	0.26	
35.62	1660	0.26	
35.61	1660	0.26	
35.60	1661	0.26	
35.58	1662	0.26	
35.57	1663	0.26	
35.55	1663	0.26	
35.54	1664	0.26	
35.53	1665	0.26	
35.51	1665	0.26	
35.50	1666	0.26	
35.48	1667	0.26	
35.47	1667	0.26	
35.45	1668	0.26	
35.44	1669	0.26	
35.43	1670	0.26	
35.41	1670	0.26	
35.40	1671	0.26	
35.38	1672	0.26	
35.37	1672	0.26	
35.35	1673	0.26	
35.34	1674	0.26	
35.33	1674	0.26	
35.31	1675	0.26	
35.30	1676	0.26	
35.28	1677	0.26	
35.27	1677	0.26	
35.25	1678	0.26	
35.24	1679	0.26	
35.23	1679	0.26	
35.21	1680	0.26	
35.20	1681	0.26	
35.19	1681	0.26	
35.17	1682	0.26	
35.16	1683	0.26	
35.14	1684	0.26	
35.13	1684	0.26	
35.11	1685	0.26	
35.10	1686	0.26	
35.09	1686	0.26	
35.07	1687	0.26	
35.06	1688	0.26	
35.04	1688	0.26	
35.03	1689	0.26	
35.01	1690	0.26	
35.00	1691	0.26	
34.99	1691	0.26	
34.97	1692	0.26	
34.96	1693	0.26	
34.94	1693	0.26	
34.93	1694	0.26	
34.92	1695	0.26	
34.90	1695	0.26	
34.89	1696	0.26	
34.87	1697	0.26	
34.86	1698	0.26	
34.85	1698	0.26	
34.83	1699	0.26	
34.82	1700	0.26	
34.80	1700	0.26	
34.79	1701	0.26	
34.77	1702	0.26	
34.76	1702	0.26	
34.75	1703	0.26	
34.73	1704	0.26	
34.72	1705	0.25	
34.70	1705	0.25	
34.69	1706	0.25	
34.68	1707	0.25	
34.66	1707	0.26	
34.65	1708	0.26	
34.63	1709	0.26	
34.62	1709	0.26	
34.60	1710	0.26	
34.59	1711	0.26	
34.58	1712	0.26	
34.56	1712	0.26	
34.55	1713	0.26	
34.53	1714	0.26	
34.52	1714	0.26	
34.51	1715	0.26	
34.49	1716	0.26	
34.48	1716	0.26	
34.46	1717	0.26	
34.45	1718	0.26	
34.43	1719	0.26	
34.42	1719	0.26	
34.41	1720	0.26	
34.39	1721	0.26	
34.38	1721	0.26	
34.36	1722	0.26	
34.35	1723	0.26	
34.34	1723	0.26	
34.32	1724	0.26	
34.31	1725	0.26	
34.29	1726	0.26	
34.28	1726	0.26	
34.26	1727	0.26	
34.25	1728	0.26	
34.24	1728	0.26	
34.22	1729	0.26	
34.21	1730	0.26	
34.19	1730	0.26	
34.18	1731	0.26	
34.17	1732	0.26	
34.15	1733	0.26	
34.14	1733	0.26	
34.12	1734	0.26	
34.11	1735	0.26	
34.09	1735	0.26	
34.08	1736	0.26	
34.07	1737	0.26	
34.05	1737	0.26	
34.04	1738	0.26	
34.02	1739	0.26	
34.01	1740	0.26	
34.00	1740	0.26	
33.98	1741	0.26	
33.97	1742	0.26	
33.95	1742	0.26	
33.94	1743	0.26	
33.93	1744	0.26	
33.91	1744	0.26	
33.90	1745	0.26	
33.88	1746	0.26	
33.87	1747	0.26	
33.85	1747	0.26	
33.84	1748	0.26	
33.83	1749	0.26	
33.81	1749	0.26	
33.80	1750	0.26	
33.78	1751	0.26	
33.77	1751	0.26	
33.75	1752	0.26	
33.74	1753	0.26	
33.73	1754	0.26	
33.71	1754	0.26	
33.70	1755	0.26	
33.68	1756	0.26	
33.67	1756	0.26	
33.66	1757	0.26	
33.64	1758	0.26	
33.63	1758	0.26	
33.61	1759	0.26	
33.60	1760	0.26	
33.58	1761	0.26	
33.57	1761	0.26	
33.56	1762	0.26	
33.54	1763	0.26	
33.53	1763	0.26	
33.51	1764	0.26	
33.50	1765	0.26	
33.49	1765	0.26	
33.47	1766	0.26	
33.46	1767	0.26	
33.44	1768	0.25	
33.43	1768	0.25	
33.42	1769	0.25	
33.40	1770	0.25	
33.39	1770	0.26	
33.37	1771	0.26	
33.36	1772	0.26	
33.35	1772	0.26	
33.33	1773	0.25	
33.32	1774	0.25	
33.30	1775	0.25	
33.29	1775	0.25	
33.27	1776	0.25	
33.26	1777	0.25	
33.25	1777	0.25	
33.23	1778	0.25	
33.22	1779	0.25	
33.20	1779	0.25	
33.19	1780	0.25	
33.17	1781	0.25	
33.16	1782	0.25	
33.15	1782	0.25	
33.13	1783	0.25	
33.12	1784	0.25	
33.10	1784	0.25	
33.09	1785	0.25	
33.07	1786	0.25	
33.06	1786	0.25	
33.05	1787	0.25	
33.03	1788	0.25	
33.02	1789	0.25	
33.00	1789	0.25	
32.99	1790	0.25	
32.98	1791	0.25	
32.96	1791	0.25	
32.95	1792	0.25	
32.93	1793	0.25	
32.92	1793	0.25	
32.91	1794	0.25	
32.89	1795	0.25	
32.88	1796	0.25	
32.86	1796	0.25	
32.85	1797	0.25	
32.83	1798	0.25	
32.82	1798	0.25	
32.81	1799	0.25	
32.79	1800	0.25	
32.78	1800	0.25	
32.76	1801	0.25	
32.75	1802	0.25	
32.74	1803	0.25	
32.72	1803	0.25	
32.71	1804	0.25	
32.69	1805	0.25	
32.68	1805	0.25	
32.66	1806	0.25	
32.65	1807	0.25	
32.64	1807	0.25	
32.62	1808	0.25	
32.61	1809	0.25	
32.59	1810	0.25	
32.58	1810	0.25	
32.57	1811	0.25	
32.55	1812	0.25	
32.54	1812	0.25	
32.52	1813	0.25	
32.51	1814	0.25	
32.50	1814	0.25	
32.48	1815	0.25	
32.47	1816	0.25	
32.45	1817	0.25	
32.44	1817	0.25	
32.42	1818	0.25	
32.41	1819	0.25	
32.40	1819	0.25	
32.38	1820	0.25	
32.37	1821	0.25	
32.35	1821	0.25	
32.34	1822	0.25	
32.33	1823	0.25	
32.31	1824	0.25	
32.30	1824	0.25	
32.28	1825	0.25	
32.27	1826	0.25	
32.25	1826	0.25	
32.24	1827	0.25	
32.23	1828	0.25	
32.21	1828	0.25	
32.20	1829	0.25	
32.18	1830	0.25	
32.17	1831	0.25	
32.16	1831	0.25	
32.14	1832	0.25	
32.13	1833	0.25	
32.11	1833	0.25	
32.10	1834	0.25	
32.08	1835	0.25	
32.07	1835	0.25	
32.06	1836	0.25	
32.04	1837	0.25	
32.03	1838	0.25	
32.01	1838	0.25	
32.00	1839	0.25	
31.99	1840	0.25	
31.97	1840	0.25	
31.96	1841	0.25	
31.94	1842	0.25	
31.93	1842	0.25	
31.91	1843	0.25	
31.90	1844	0.25	
31.89	1845	0.25	
31.87	1845	0.25	
31.86	1846	0.25	
31.84	1847	0.25	
31.83	1847	0.25	
31.82	1848	0.25	
31.80	1849	0.25	
31.79	1849	0.25	
31.77	1850	0.25	
31.76	1851	0.25	
31.74	1852	0.25	
31.73	1852	0.25	
31.72	1853	0.25	
31.70	1854	0.25	
31.69	1854	0.25	
31.67	1855	0.25	
31.66	1856	0.25	
31.65	1856	0.25	
31.63	1857	0.25	
31.62	1858	0.25	
31.60	1859	0.25	
31.59	1859	0.25	
31.58	1860	0.25	
31.56	1861	0.25	
31.55	1861	0.25	
31.53	1862	0.25	
31.52	1863	0.25	
31.50	1863	0.25	
31.49	1864	0.25	
31.48	1865	0.25	
31.46	1866	0.25	
31.45	1866	0.25	
31.43	1867	0.25	
31.42	1868	0.25	
31.41	1868	0.25	
31.39	1869	0.25	
31.38	1870	0.25	
31.36	1870	0.25	
31.35	1871	0.25	
31.33	1872	0.25	
31.32	1873	0.25	
31.31	1873	0.25	
31.29	1874	0.25	
31.28	1875	0.25	
31.26	1875	0.25	
31.25	1876	0.25	
31.24	1877	0.25	
31.22	1877	0.25	
31.21	1878	0.25	
31.19	1879	0.25	
31.18	1880	0.25	
31.16	1880	0.25	
31.15	1881	0.25	
31.14	1882	0.25	
31.12	1882	0.25	
31.11	1883	0.25	
31.09	1884	0.25	
31.08	1884	0.25	
31.07	1885	0.25	
31.05	1886	0.25	
31.04	1887	0.25	
31.02	1887	0.25	
31.01	1888	0.25	
30.99	1889	0.25	
30.98	1889	0.25	
30.97	1890	0.25	
30.95	1891	0.25	
30.94	1891	0.25	
30.92	1892	0.25	
30.91	1893	0.25	
30.90	1894	0.25	
30.88	1894	0.25	
30.87	1895	0.25	
30.85	1896	0.25	
30.84	1896	0.25	
30.82	1897	0.25	
30.81	1898	0.25	
30.80	1898	0.25	
30.78	1899	0.25	
30.77	1900	0.25	
30.75	1901	0.25	
30.74	1901	0.25	
30.73	1902	0.25	
30.71	1903	0.25	
30.70	1903	0.25	
30.68	1904	0.25	
30.67	1905	0.25	
30.66	1905	0.25	
30.64	1906	0.25	
30.63	1907	0.25	
30.61	1908	0.25	
30.60	1908	0.25	
30.58	1909	0.25	
30.57	1910	0.25	
30.56	1910	0.25	
30.54	1911	0.25	
30.53	1912	0.25	
30.51	1912	0.25	
30.50	1913	0.25	
30.48	1914	0.25	
30.47	1915	0.25	
30.46	1915	0.25	
30.44	1916	0.25	
30.43	1917	0.25	
30.42	1917	0.25	
30.40	1918	0.25	
30.39	1919	0.25	
30.37	1919	0.25	
30.36	1920	0.25	
30.34	1921	0.25	
30.33	1922	0.25	
30.32	1922	0.25	
30.30	1923	0.25	
30.29	1924	0.25	
30.27	1924	0.25	
30.26	1925	0.25	
30.24	1926	0.25	
30.23	1926	0.25	
30.22	1927	0.25	
30.20	1928	0.25	
30.19	1929	0.25	
30.17	1929	0.25	
30.16	1930	0.25	
30.15	1931	0.25	
30.13	1931	0.25	
30.12	1932	0.25	
30.10	1933	0.25	
30.09	1933	0.25	
30.08	1934	0.25	
30.06	1935	0.25	
30.05	1936	0.25	
30.03	1936	0.25	
30.02	1937	0.25	
30.00	1938	0.25	
29.99	1938	0.25	
29.98	1939	0.25	
29.96	1940	0.25	
29.95	1940	0.25	
29.93	1941	0.25	
29.92	1942	0.25	
29.90	1943	0.25	
29.89	1943	0.25	
29.88	1944	0.25	
29.86	1945	0.25	
29.85	1945	0.25	
29.83	1946	0.25	
29.82	1947	0.25	
29.81	1947	0.25	
29.79	1948	0.25	
29.78	1949	0.25	
29.76	1950	0.25	
29.75	1950	0.25	
29.73	1951	0.25	
29.72	1952	0.25	
29.71	1952	0.25	
29.69	1953	0.25	
29.68	1954	0.25	
29.66	1954	0.25	
29.65	1955	0.25	
29.64	1956	0.25	
29.62	1957	0.25	
29.61	1957	0.25	
29.59	1958	0.25	
29.58	1959	0.25	
29.57	1959	0.25	
29.55	1960	0.25	
29.54	1961	0.25	
29.52	1961	0.25	
29.51	1962	0.25	
29.50	1963	0.25	
29.48	1964	0.25	
29.47	1964	0.25	
29.45	1965	0.25	
29.44	1966	0.25	
29.42	1966	0.25	
29.41	1967	0.25	
29.40	1968	0.25	
29.38	1968	0.25	
29.37	1969	0.25	
29.35	1970	0.25	
29.34	1971	0.25	
29.32	1971	0.25	
29.31	1972	0.25	
29.30	1973	0.25	
29.28	1973	0.25	
29.27	1974	0.25	
29.25	1975	0.25	
29.24	1975	0.25	
29.23	1976	0.25	
29.21	1977	0.25	
29.20	1978	0.25	
29.18	1978	0.25	
29.17	1979	0.25	
29.16	1980	0.25	
29.14	1980	0.25	
29.13	1981	0.25	
29.11	1982	0.25	
29.10	1982	0.25	
29.08	1983	0.25	
29.07	1984	0.25	
29.06	1985	0.25	
29.04	1985	0.25	
29.03	1986	0.25	
29.01	1987	0.25	
29.00	1987	0.25	
28.99	1988	0.25	
28.97	1989	0.25	
28.96	1989	0.25	
28.94	1990	0.25	
28.93	1991	0.25	
28.91	1992	0.25	
28.90	1992	0.25	
28.89	1993	0.25	
28.87	1994	0.25	
28.86	1994	0.25	
28.84	1995	0.25	
28.83	1996	0.25	
28.82	1996	0.25	
28.80	1997	0.25	
28.79	1998	0.25	
28.77	1999	0.25	
28.76	1999	0.25	
28.74	2000	0.25	
28.73	2001	0.25	
28.72	2001	0.25	
28.70	2002	0.25	
28.69	2003	0.25	
28.67	2003	0.25	
28.66	2004	0.25	
28.65	2005	0.25	
28.63	2006	0.25	
28.62	2006	0.25	
28.60	2007	0.25	
28.59	2008	0.25	
28.58	2008	0.25	
28.56	2009	0.25	
28.55	2010	0.25	
28.53	2010	0.25	
28.52	2011	0.25	
28.50	2012	0.25	
28.49	2013	0.25	
28.48	2013	0.25	
28.46	2014	0.25	
28.45	2015	0.25	
28.43	2015	0.25	
28.42	2016	0.25	
28.41	2017	0.25	
28.39	2017	0.25	
28.38	2018	0.25	
28.36	2019	0.25	
28.35	2020	0.25	
28.33	2020	0.25	
28.32	2021	0.25	
28.31	2022	0.25	
28.29	2022	0.25	
28.28	2023	0.25	
28.26	2024	0.25	
28.25	2024	0.25	
28.24	2025	0.25	
28.22	2026	0.25	
28.21	2027	0.25	
28.19	2027	0.25	
28.18	2028	0.25	
28.16	2029	0.25	
28.15	2029	0.25	
28.14	2030	0.25	
28.12	2031	0.25	
28.11	2031	0.25	
28.09	2032	0.25	
28.08	2033	0.25	
28.07	2034	0.25	
28.05	2034	0.25	
28.04	2035	0.25	
28.02	2036	0.25	
28.01	2036	0.25	
27.99	2037	0.25	
27.98	2038	0.25	
27.97	2038	0.25	
27.95	2039	0.25	
27.94	2040	0.25	
27.92	2041	0.25	
27.91	2041	0.25	
27.90	2042	0.25	
27.88	2043	0.25	
27.87	2043	0.25	
27.85	2044	0.25	
27.84	2045	0.25	
27.83	2045	0.25	
27.81	2046	0.25	
27.80	2047	0.25	
27.78	2048	0.25	
27.77	2048	0.25	
27.75	2049	0.25	
27.74	2050	0.25	
27.73	2050	0.25	
27.71	2051	0.25	
27.70	2052	0.25	
27.68	2052	0.25	
27.67	2053	0.25	
27.65	2054	0.24	
27.64	2055	0.24	
27.63	2055	0.24	
27.61	2056	0.24	
27.60	2057	0.25	
27.58	2057	0.25	
27.57	2058	0.25	
27.56	2059	0.25	
27.54	2059	0.25	
27.53	2060	0.25	
27.51	2061	0.25	
27.50	2062	0.25	
27.49	2062	0.25	
27.47	2063	0.25	
27.46	2064	0.25	
27.44	2064	0.25	
27.43	2065	0.25	
27.41	2066	0.25	
27.40	2066	0.25	
27.39	2067	0.25	
27.37	2068	0.25	
27.36	2069	0.25	
27.34	2069	0.25	
27.33	2070	0.25	
27.32	2071	0.25	
27.30	2071	0.25	
27.29	2072	0.25	
27.27	2073	0.25	
27.26	2073	0.25	
27.25	2074	0.25	
27.23	2075	0.25	
27.22	2076	0.25	
27.20	2076	0.25	
27.19	2077	0.25	
27.17	2078	0.25	
27.16	2078	0.25	
27.15	2079	0.25	
27.13	2080	0.25	
27.12	2080	0.25	
27.10	2081	0.25	
27.09	2082	0.25	
27.08	2083	0.25	
27.06	2083	0.25	
27.05	2084	0.25	
27.03	2085	0.25	
27.02	2085	0.25	
27.01	2086	0.25	
26.99	2087	0.25	
26.98	2087	0.25	
26.96	2088	0.25	
26.95	2089	0.25	
26.93	2090	0.25	
26.92	2090	0.25	
26.91	2091	0.25	
26.89	2092	0.25	
26.88	2092	0.25	
26.86	2093	0.25	
26.85	2094	0.25	
26.83	2094	0.25	
26.82	2095	0.25	
26.81	2096	0.25	
26.79	2097	0.25	
26.78	2097	0.25	
26.76	2098	0.25	
26.75	2099	0.25	
26.74	2099	0.25	
26.72	2100	0.25	
26.71	2101	0.25	
26.69	2101	0.25	
26.68	2102	0.25	
26.66	2103	0.25	
26.65	2104	0.25	
26.64	2104	0.25	
26.62	2105	0.25	
26.61	2106	0.25	
26.59	2106	0.25	
26.58	2107	0.25	
26.57	2108	0.25	
26.55	2108	0.25	
26.54	2109	0.25	
26.52	2110	0.25	
26.51	2111	0.25	
26.49	2111	0.25	
26.48	2112	0.25	
26.47	2113	0.25	
26.45	2113	0.25	
26.44	2114	0.25	
26.42	2115	0.25	
26.41	2115	0.25	
26.40	2116	0.25	
26.38	2117	0.25	
26.37	2118	0.25	
26.35	2118	0.25	
26.34	2119	0.25	
26.33	2120	0.25	
26.31	2120	0.25	
26.30	2121	0.25	
26.28	2122	0.25	
26.27	2122	0.25	
26.26	2123	0.25	
26.24	2124	0.25	
26.23	2125	0.25	
26.21	2125	0.25	
26.20	2126	0.25	
26.18	2127	0.25	
26.17	2127	0.25	
26.16	2128	0.25	
26.14	2129	0.25	
26.13	2129	0.25	
26.11	2130	0.25	
26.10	2131	0.25	
26.08	2132	0.25	
26.07	2132	0.25	
26.06	2133	0.25	
26.04	2134	0.25	
26.03	2134	0.25	
26.01	2135	0.25	
26.00	2136	0.25	
25.99	2136	0.25	
25.97	2137	0.25	
25.96	2138	0.25	
25.94	2139	0.25	
25.93	2139	0.25	
25.92	2140	0.25	
25.90	2141	0.25	
25.89	2141	0.25	
25.87	2142	0.25	
25.86	2143	0.25	
25.84	2143	0.25	
25.83	2144	0.25	
25.82	2145	0.25	
25.80	2146	0.25	
25.79	2146	0.25	
25.77	2147	0.25	
25.76	2148	0.25	
25.75	2148	0.25	
25.73	2149	0.25	
25.72	2150	0.25	
25.70	2150	0.25	
25.69	2151	0.25	
25.67	2152	0.25	
25.66	2153	0.25	
25.65	2153	0.25	
25.63	2154	0.25	
25.62	2155	0.25	
25.60	2155	0.25	
25.59	2156	0.25	
25.57	2157	0.25	
25.56	2157	0.25	
25.55	2158	0.25	
25.53	2159	0.25	
25.52	2160	0.25	
25.50	2160	0.25	
25.49	2161	0.25	
25.48	2162	0.25	
25.46	2162	0.25	
25.45	2163	0.25	
25.43	2164	0.25	
25.42	2164	0.25	
25.41	2165	0.25	
25.39	2166	0.25	
25.38	2167	0.25	
25.36	2167	0.25	
25.35	2168	0.25	
25.34	2169	0.25	
25.32	2169	0.25	
25.31	2170	0.25	
25.29	2171	0.25	
25.28	2171	0.25	
25.26	2172	0.25	
25.25	2173	0.25	
25.24	2174	0.25	
25.22	2174	0.25	
25.21	2175	0.25	
25.19	2176	0.25	
25.18	2176	0.25	
25.16	2177	0.25	
25.15	2178	0.25	
25.14	2178	0.25	
25.12	2179	0.25	
25.11	2180	0.25	
25.09	2181	0.25	
25.08	2181	0.25	
25.07	2182	0.25	
25.05	2183	0.24	
25.04	2183	0.24	
25.02	2184	0.24	
25.01	2185	0.24	
25.00	2185	0.24	
24.98	2186	0.25	
24.97	2187	0.25	
24.95	2188	0.25	
24.94	2188	0.25	
24.93	2189	0.25	
24.91	2190	0.25	
24.90	2190	0.25	
24.88	2191	0.25	
24.87	2192	0.25	
24.86	2192	0.25	
24.84	2193	0.25	
24.83	2194	0.25	
24.81	2195	0.25	
24.80	2195	0.25	
24.78	2196	0.25	
24.77	2197	0.25	
24.75	2197	0.25	
24.74	2198	0.25	
24.73	2199	0.25	
24.71	2199	0.25	
24.70	2200	0.25	
24.68	2201	0.25	
24.67	2202	0.25	
24.66	2202	0.24	
24.64	2203	0.24	
24.63	2204	0.24	
24.61	2204	0.24	
24.60	2205	0.24	
24.59	2206	0.24	
24.57	2206	0.24	
24.56	2207	0.25	
24.54	2208	0.25	
24.53	2209	0.25	
24.51	2209	0.25	
24.50	2210	0.24	
24.49	2211	0.24	
24.47	2211	0.24	
24.46	2212	0.24	
24.44	2213	0.24	
24.43	2213	0.24	
24.42	2214	0.24	
24.40	2215	0.24	
24.39	2216	0.24	
24.37	2216	0.25	
24.36	2217	0.25	
24.35	2218	0.25	
24.33	2218	0.25	
24.32	2219	0.25	
24.31	2220	0.24	
24.29	2220	0.24	
24.28	2221	0.24	
24.26	2222	0.24	
24.25	2223	0.25	
24.24	2223	0.25	
24.22	2224	0.25	
24.21	2225	0.25	
24.20	2225	0.25	
24.18	2226	0.25	
24.17	2227	0.25	
24.16	2227	0.25	
24.14	2228	0.25	
24.13	2229	0.25	
24.11	2230	0.25	
24.10	2230	0.25	
24.09	2231	0.25	
24.07	2232	0.25	
24.06	2232	0.25	
24.04	2233	0.25	
24.03	2234	0.25	
24.01	2234	0.25	
24.00	2235	0.25	
23.99	2236	0.25	
23.97	2237	0.25	
23.96	2237	0.25	
23.94	2238	0.25	
23.93	2239	0.25	
23.92	2239	0.25	
23.90	2240	0.25	
23.89	2241	0.25	
23.87	2241	0.25	
23.86	2242	0.25	
23.84	2243	0.25	
23.83	2244	0.25	
23.82	2244	0.25	
23.80	2245	0.24	
23.79	2246	0.24	
23.77	2246	0.24	
23.76	2247	0.24	
23.75	2248	0.24	
23.73	2248	0.25	
23.72	2249	0.25	
23.70	2250	0.24	
23.69	2251	0.24	
23.68	2251	0.24	
23.66	2252	0.24	
23.65	2253	0.24	
23.63	2253	0.24	
23.62	2254	0.24	
23.60	2255	0.24	
23.59	2255	0.24	
23.58	2256	0.25	
23.56	2257	0.25	
23.55	2258	0.25	
23.53	2258	0.25	
23.52	2259	0.25	
23.50	2260	0.25	
23.49	2260	0.25	
23.48	2261	0.25	
23.46	2262	0.25	
23.45	2262	0.25	
23.43	2263	0.24	
23.42	2264	0.24	
23.41	2265	0.24	
23.39	2265	0.24	
23.38	2266	0.24	
23.36	2267	0.24	
23.35	2267	0.24	
23.33	2268	0.24	
23.32	2269	0.24	
23.31	2269	0.24	
23.29	2270	0.24	
23.28	2271	0.24	
23.26	2272	0.24	
23.25	2272	0.24	
23.24	2273	0.24	
23.22	2274	0.24	
23.21	2274	0.24	
23.19	2275	0.24	
23.18	2276	0.24	
23.16	2276	0.24	
23.15	2277	0.24	
23.14	2278	0.24	
23.12	2279	0.25	
23.11	2279	0.25	
23.09	2280	0.25	
23.08	2281	0.25	
23.07	2281	0.25	
23.05	2282	0.25	
23.04	2283	0.25	
23.02	2283	0.25	
23.01	2284	0.25	
22.99	2285	0.25	
22.98	2286	0.25	
22.97	2286	0.25	
22.95	2287	0.25	
22.94	2288	0.25	
22.92	2288	0.24	
22.91	2289	0.24	
22.90	2290	0.24	
22.88	2290	0.24	
22.87	2291	0.24	
22.85	2292	0.24	
22.84	2293	0.24	
22.82	2293	0.24	
22.81	2294	0.24	
22.80	2295	0.24	
22.78	2295	0.24	
22.77	2296	0.24	
22.75	2297	0.24	
22.74	2297	0.24	
22.72	2298	0.24	
22.71	2299	0.24	
22.70	2300	0.24	
22.68	2300	0.24	
22.67	2301	0.24	
22.65	2302	0.24	
22.64	2302	0.24	
22.63	2303	0.24	
22.61	2304	0.24	
22.60	2304	0.24	
22.58	2305	0.24	
22.57	2306	0.24	
22.55	2307	0.24	
22.54	2307	0.24	
22.53	2308	0.25	
22.51	2309	0.25	
22.50	2309	0.25	
22.48	2310	0.25	
22.47	2311	0.25	
22.46	2311	0.25	
22.44	2312	0.25	
22.43	2313	0.25	
22.41	2314	0.25	
22.40	2314	0.25	
22.38	2315	0.25	
22.37	2316	0.25	
22.36	2316	0.25	
22.34	2317	0.25	
22.33	2318	0.25	
22.31	2318	0.25	
22.30	2319	0.25	
22.29	2320	0.25	
22.27	2321	0.25	
22.26	2321	0.25	
22.24	2322	0.25	
22.23	2323	0.25	
22.21	2323	0.25	
22.20	2324	0.25	
22.19	2325	0.25	
22.17	2325	0.25	
22.16	2326	0.25	
22.14	2327	0.24	
22.13	2328	0.24	
22.12	2328	0.25	
22.10	2329	0.25	
22.09	2330	0.25	
22.07	2330	0.25	
22.06	2331	0.25	
22.04	2332	0.25	
22.03	2332	0.25	
22.02	2333	0.25	
22.00	2334	0.25	
21.99	2335	0.25	
21.97	2335	0.25	
21.96	2336	0.25	
21.94	2337	0.25	
21.93	2337	0.25	
21.92	2338	0.25	
21.90	2339	0.25	
21.89	2339	0.24	
21.87	2340	0.24	
21.86	2341	0.25	
21.85	2342	0.25	
21.83	2342	0.25	
21.82	2343	0.25	
21.80	2344	0.25	
21.79	2344	0.25	
21.77	2345	0.25	
21.76	2346	0.25	
21.75	2346	0.25	
21.73	2347	0.25	
21.72	2348	0.25	
21.70	2349	0.25	
21.69	2349	0.24	
21.68	2350	0.24	
21.66	2351	0.24	
21.65	2351	0.24	
21.63	2352	0.24	
21.62	2353	0.24	
21.60	2353	0.24	
21.59	2354	0.24	
21.58	2355	0.24	
21.56	2356	0.24	
21.55	2356	0.24	
21.53	2357	0.24	
21.52	2358	0.24	
21.51	2358	0.24	
21.49	2359	0.24	
21.48	2360	0.24	
21.46	2360	0.24	
21.45	2361	0.24	
21.43	2362	0.24	
21.42	2363	0.25	
21.41	2363	0.25	
21.39	2364	0.25	
21.38	2365	0.25	
21.36	2365	0.25	
21.35	2366	0.25	
21.34	2367	0.25	
21.32	2367	0.25	
21.31	2368	0.25	
21.29	2369	0.25	
21.28	2370	0.25	
21.26	2370	0.25	
21.25	2371	0.25	
21.24	2372	0.25	
21.22	2372	0.25	
21.21	2373	0.24	
21.19	2374	0.24	
21.18	2374	0.24	
21.17	2375	0.25	
21.15	2376	0.25	
21.14	2377	0.25	
21.12	2377	0.25	
21.11	2378	0.25	
21.10	2379	0.25	
21.08	2379	0.25	
21.07	2380	0.25	
21.05	2381	0.25	
21.04	2381	0.25	
21.03	2382	0.25	
21.01	2383	0.25	
21.00	2384	0.25	
20.98	2384	0.25	
20.97	2385	0.25	
20.95	2386	0.25	
20.94	2386	0.25	
20.93	2387	0.25	
20.91	2388	0.25	
20.90	2388	0.25	
20.88	2389	0.25	
20.87	2390	0.25	
20.85	2391	0.25	
20.84	2391	0.25	
20.83	2392	0.25	
20.81	2393	0.25	
20.80	2393	0.25	
20.78	2394	0.25	
20.77	2395	0.25	
20.76	2395	0.25	
20.74	2396	0.25	
20.73	2397	0.25	
20.71	2398	0.25	
20.70	2398	0.25	
20.69	2399	0.25	
20.67	2400	0.25	
20.66	2400	0.25	
20.64	2401	0.25	
20.63	2402	0.25	
20.61	2402	0.25	
20.60	2403	0.25	
20.59	2404	0.25	
20.57	2405	0.25	
20.56	2405	0.25	
20.54	2406	0.25	
20.53	2407	0.24	
20.52	2407	0.24	
20.50	2408	0.24	
20.49	2409	0.24	
20.47	2409	0.24	
20.46	2410	0.24	
20.44	2411	0.24	
20.43	2412	0.24	
20.42	2412	0.24	
20.40	2413	0.25	
20.39	2414	0.25	
20.37	2414	0.25	
20.36	2415	0.25	
20.35	2416	0.25	
20.33	2416	0.25	
20.32	2417	0.25	
20.30	2418	0.25	
20.29	2419	0.25	
20.27	2419	0.25	
20.26	2420	0.25	
20.25	2421	0.24	
20.23	2421	0.24	
20.22	2422	0.24	
20.20	2423	0.24	
20.19	2423	0.24	
20.17	2424	0.24	
20.16	2425	0.24	
20.15	2426	0.24	
20.13	2426	0.24	
20.12	2427	0.24	
20.10	2428	0.24	
20.09	2428	0.24	
20.08	2429	0.24	
20.06	2430	0.24	
20.05	2430	0.24	
20.03	2431	0.24	
20.02	2432	0.24	
20.01	2433	0.24	
19.99	2433	0.24	
19.98	2434	0.24	
19.96	2435	0.24	
19.95	2435	0.24	
19.94	2436	0.24	
19.92	2437	0.24	
19.91	2437	0.24	
19.89	2438	0.24	
19.88	2439	0.24	
19.87	2440	0.24	
19.85	2440	0.24	
19.84	2441	0.24	
19.82	2442	0.24	
19.81	2442	0.24	
19.79	2443	0.24	
19.78	2444	0.24	
19.77	2444	0.24	
19.75	2445	0.24	
19.74	2446	0.24	
19.72	2447	0.24	
19.71	2447	0.24	
19.70	2448	0.24	
19.68	2449	0.24	
19.67	2449	0.24	
19.65	2450	0.23	
19.64	2451	0.24	
19.62	2451	0.24	
19.61	2452	0.24	
19.60	2453	0.24	
19.58	2454	0.24	
19.57	2454	0.24	
19.55	2455	0.24	
19.54	2456	0.23	
19.53	2456	0.23	
19.51	2457	0.23	
19.50	2458	0.23	
19.48	2458	0.23	
19.47	2459	0.23	
19.46	2460	0.23	
19.44	2461	0.23	
19.43	2461	0.23	
19.41	2462	0.23	
19.40	2463	0.23	
19.38	2463	0.23	
19.37	2464	0.23	
19.36	2465	0.23	
19.34	2465	0.23	
19.33	2466	0.23	
19.31	2467	0.23	
19.30	2468	0.23	
19.29	2468	0.23	
19.27	2469	0.23	
19.26	2470	0.23	
19.24	2470	0.23	
19.23	2471	0.23	
19.21	2472	0.23	
19.20	2472	0.23	
19.19	2473	0.23	
19.17	2474	0.23	
19.16	2475	0.23	
19.14	2475	0.23	
19.13	2476	0.23	
19.12	2477	0.23	
19.10	2477	0.23	
19.09	2478	0.23	
19.07	2479	0.23	
19.06	2479	0.23	
19.05	2480	0.23	
19.03	2481	0.23	
19.02	2482	0.22	
19.00	2482	0.23	
18.99	2483	0.22	
18.98	2484	0.22	
18.96	2484	0.22	
18.95	2485	0.22	
18.93	2486	0.22	
18.92	2486	0.22	
18.90	2487	0.22	
18.89	2488	0.22	
18.88	2489	0.22	
18.86	2489	0.22	
18.85	2490	0.22	
18.83	2491	0.22	
18.82	2491	0.22	
18.81	2492	0.22	
18.79	2493	0.22	
18.78	2493	0.22	
18.76	2494	0.22	
18.75	2495	0.22	
18.74	2496	0.22	
18.72	2496	0.22	
18.71	2497	0.22	
18.69	2498	0.22	
18.68	2498	0.22	
18.67	2499	0.22	
18.65	2500	0.22	
18.64	2500	0.22	
18.62	2501	0.22	
18.61	2502	0.22	
18.60	2503	0.22	
18.58	2503	0.22	
18.57	2504	0.22	
18.55	2505	0.22	
18.54	2505	0.22	
18.52	2506	0.22	
18.51	2507	0.22	
18.50	2507	0.22	
18.48	2508	0.22	
18.47	2509	0.22	
18.45	2510	0.22	
18.44	2510	0.22	
18.43	2511	0.22	
18.41	2512	0.22	
18.40	2512	0.22	
18.38	2513	0.22	
18.37	2514	0.22	
18.36	2514	0.22	
18.34	2515	0.22	
18.33	2516	0.22	
18.31	2517	0.22	
18.30	2517	0.22	
18.29	2518	0.22	
18.27	2519	0.22	
18.26	2519	0.22	
18.25	2520	0.22	
18.23	2521	0.22	
18.22	2521	0.21	
18.20	2522	0.21	
18.19	2523	0.22	
18.18	2524	0.22	
18.16	2524	0.22	
18.15	2525	0.22	
18.14	2526	0.22	
18.12	2526	0.22	
18.11	2527	0.22	
18.09	2528	0.22	
18.08	2528	0.22	
18.07	2529	0.22	
18.05	2530	0.22	
18.04	2531	0.22	
18.02	2531	0.22	
18.01	2532	0.22	
18.00	2533	0.22	
17.98	2533	0.21	
17.97	2534	0.21	
17.95	2535	0.21	
17.94	2535	0.21	
17.93	2536	0.21	
17.91	2537	0.21	
17.90	2538	0.21	
17.88	2538	0.21	
17.87	2539	0.21	
17.85	2540	0.21	
17.84	2540	0.21	
17.83	2541	0.21	
17.81	2542	0.21	
17.80	2542	0.21	
17.78	2543	0.21	
17.77	2544	0.21	
17.76	2545	0.21	
17.74	2545	0.21	
17.73	2546	0.21	
17.71	2547	0.21	
17.70	2547	0.21	
17.69	2548	0.21	
17.67	2549	0.21	
17.66	2549	0.21	
17.64	2550	0.21	
17.63	2551	0.21	
17.62	2552	0.21	
17.60	2552	0.21	
17.59	2553	0.21	
17.57	2554	0.21	
17.56	2554	0.21	
17.55	2555	0.21	
17.53	2556	0.21	
17.52	2556	0.21	
17.50	2557	0.21	
17.49	2558	0.21	
17.48	2559	0.21	
17.46	2559	0.21	
17.45	2560	0.21	
17.43	2561	0.21	
17.42	2561	0.21	
17.41	2562	0.21	
17.39	2563	0.21	
17.38	2563	0.21	
17.36	2564	0.21	
17.35	2565	0.21	
17.33	2566	0.21	
17.32	2566	0.21	
17.31	2567	0.21	
17.29	2568	0.21	
17.28	2568	0.21	
17.26	2569	0.21	
17.25	2570	0.21	
17.24	2570	0.21	
17.22	2571	0.21	
17.21	2572	0.21	
17.19	2573	0.21	
17.18	2573	0.21	
17.16	2574	0.21	
17.15	2575	0.21	
17.14	2575	0.21	
17.12	2576	0.21	
17.11	2577	0.21	
17.09	2577	0.21	
17.08	2578	0.21	
17.07	2579	0.21	
17.05	2580	0.21	
17.04	2580	0.21	
17.02	2581	0.21	
17.01	2582	0.20	
16.99	2582	0.20	
16.98	2583	0.20	
16.97	2584	0.20	
16.95	2584	0.20	
16.94	2585	0.20	
16.92	2586	0.20	
16.91	2587	0.20	
16.90	2587	0.20	
16.88	2588	0.20	
16.87	2589	0.20	
16.86	2589	0.20	
16.84	2590	0.20	
16.83	2591	0.20	
16.81	2591	0.20	
16.80	2592	0.20	
16.78	2593	0.20	
16.77	2594	0.20	
16.76	2594	0.20	
16.74	2595	0.20	
16.73	2596	0.20	
16.71	2596	0.20	
16.70	2597	0.20	
16.68	2598	0.20	
16.67	2598	0.20	
16.66	2599	0.20	
16.64	2600	0.20	
16.63	2601	0.20	
16.61	2601	0.20	
16.60	2602	0.20	
16.59	2603	0.20	
16.57	2603	0.20	
16.56	2604	0.20	
16.54	2605	0.20	
16.53	2605	0.20	
16.52	2606	0.20	
16.50	2607	0.20	
16.49	2608	0.20	
16.47	2608	0.20	
16.46	2609	0.20	
16.45	2610	0.20	
16.43	2610	0.20	
16.42	2611	0.20	
16.40	2612	0.20	
16.39	2612	0.20	
16.38	2613	0.20	
16.36	2614	0.20	
16.35	2615	0.20	
16.33	2615	0.20	
16.32	2616	0.20	
16.30	2617	0.20	
16.29	2617	0.20	
16.28	2618	0.20	
16.26	2619	0.20	
16.25	2619	0.20	
16.23	2620	0.20	
16.22	2621	0.20	
16.21	2622	0.20	
16.19	2622	0.20	
16.18	2623	0.20	
16.16	2624	0.20	
16.15	2624	0.20	
16.14	2625	0.20	
16.12	2626	0.20	
16.11	2626	0.20	
16.09	2627	0.20	
16.08	2628	0.20	
16.06	2629	0.20	
16.05	2629	0.20	
16.04	2630	0.19	
16.02	2631	0.19	
16.01	2631	0.19	
15.99	2632	0.19	
15.98	2633	0.19	
15.97	2633	0.19	
15.95	2634	0.19	
15.94	2635	0.19	
15.92	2636	0.19	
15.91	2636	0.19	
15.90	2637	0.19	
15.88	2638	0.19	
15.87	2638	0.19	
15.85	2639	0.19	
15.84	2640	0.19	
15.82	2640	0.19	
15.81	2641	0.19	
15.80	2642	0.19	
15.78	2643	0.19	
15.77	2643	0.19	
15.75	2644	0.19	
15.74	2645	0.19	
15.72	2645	0.19	
15.71	2646	0.19	
15.70	2647	0.19	
15.68	2647	0.19	
15.67	2648	0.19	
15.65	2649	0.19	
15.64	2650	0.19	
15.63	2650	0.19	
15.61	2651	0.19	
15.60	2652	0.19	
15.58	2652	0.19	
15.57	2653	0.19	
15.56	2654	0.19	
15.54	2654	0.19	
15.53	2655	0.19	
15.51	2656	0.19	
15.50	2657	0.19	
15.49	2657	0.19	
15.47	2658	0.19	
15.46	2659	0.19	
15.44	2659	0.19	
15.43	2660	0.19	
15.42	2661	0.19	
15.40	2661	0.19	
15.39	2662	0.18	
15.37	2663	0.18	
15.36	2664	0.18	
15.35	2664	0.18	
15.33	2665	0.18	
15.32	2666	0.18	
15.30	2666	0.18	
15.29	2667	0.18	
15.27	2668	0.18	
15.26	2668	0.18	
15.25	2669	0.18	
15.23	2670	0.18	
15.22	2671	0.18	
15.20	2671	0.18	
15.19	2672	0.18	
15.18	2673	0.18	
15.16	2673	0.18	
15.15	2674	0.18	
15.13	2675	0.18	
15.12	2675	0.18	
15.10	2676	0.18	
15.09	2677	0.18	
15.08	2678	0.18	
15.06	2678	0.18	
15.05	2679	0.18	
15.03	2680	0.18	
15.02	2680	0.18	
15.01	2681	0.18	
14.99	2682	0.18	
14.98	2682	0.18	
14.96	2683	0.18	
14.95	2684	0.18	
14.94	2685	0.18	
14.92	2685	0.18	
14.91	2686	0.18	
14.89	2687	0.18	
14.88	2687	0.18	
14.87	2688	0.18	
14.85	2689	0.18	
14.84	2689	0.18	
14.82	2690	0.18	
14.81	2691	0.18	
14.80	2692	0.18	
14.78	2692	0.18	
14.77	2693	0.18	
14.75	2694	0.18	
14.74	2694	0.18	
14.73	2695	0.18	
14.71	2696	0.18	
14.70	2696	0.18	
14.68	2697	0.18	
14.67	2698	0.18	
14.66	2699	0.18	
14.64	2699	0.18	
14.63	2700	0.18	
14.61	2701	0.18	
14.60	2701	0.18	
14.59	2702	0.18	
14.57	2703	0.18	
14.56	2703	0.18	
14.54	2704	0.18	
14.53	2705	0.18	
14.52	2706	0.18	
14.50	2706	0.18	
14.49	2707	0.18	
14.47	2708	0.18	
14.46	2708	0.17	
14.44	2709	0.17	
14.43	2710	0.17	
14.42	2710	0.17	
14.40	2711	0.17	
14.39	2712	0.17	
14.37	2713	0.17	
14.36	2713	0.17	
14.34	2714	0.17	
14.33	2715	0.17	
14.32	2715	0.17	
14.30	2716	0.17	
14.29	2717	0.17	
14.27	2717	0.17	
14.26	2718	0.17	
14.25	2719	0.17	
14.23	2720	0.17	
14.22	2720	0.17	
14.21	2721	0.17	
14.19	2722	0.17	
14.18	2722	0.17	
14.16	2723	0.17	
14.15	2724	0.17	
14.14	2724	0.17	
14.12	2725	0.17	
14.11	2726	0.17	
14.09	2727	0.17	
14.08	2727	0.17	
14.07	2728	0.17	
14.05	2729	0.17	
14.04	2729	0.17	
14.02	2730	0.17	
14.01	2731	0.17	
13.99	2731	0.17	
13.98	2732	0.17	
13.97	2733	0.17	
13.95	2734	0.17	
13.94	2734	0.17	
13.92	2735	0.17	
13.91	2736	0.17	
13.90	2736	0.17	
13.88	2737	0.17	
13.87	2738	0.17	
13.85	2738	0.17	
13.84	2739	0.17	
13.83	2740	0.17	
13.81	2741	0.16	
13.80	2741	0.16	
13.78	2742	0.16	
13.77	2743	0.16	
13.76	2743	0.16	
13.74	2744	0.16	
13.73	2745	0.16	
13.71	2745	0.16	
13.70	2746	0.16	
13.68	2747	0.16	
13.67	2748	0.16	
13.66	2748	0.16	
13.64	2749	0.16	
13.63	2750	0.16	
13.61	2750	0.16	
13.60	2751	0.16	
13.59	2752	0.16	
13.57	2752	0.16	
13.56	2753	0.16	
13.54	2754	0.16	
13.53	2755	0.16	
13.52	2755	0.16	
13.50	2756	0.16	
13.49	2757	0.16	
13.47	2757	0.16	
13.46	2758	0.16	
13.45	2759	0.16	
13.43	2759	0.16	
13.42	2760	0.16	
13.40	2761	0.16	
13.39	2762	0.16	
13.38	2762	0.16	
13.36	2763	0.16	
13.35	2764	0.16	
13.33	2764	0.16	
13.32	2765	0.16	
13.31	2766	0.16	
13.29	2766	0.16	
13.28	2767	0.16	
13.26	2768	0.16	
13.25	2769	0.16	
13.24	2769	0.16	
13.22	2770	0.16	
13.21	2771	0.16	
13.19	2771	0.16	
13.18	2772	0.16	
13.17	2773	0.16	
13.15	2773	0.16	
13.14	2774	0.16	
13.12	2775	0.16	
13.11	2776	0.16	
13.10	2776	0.16	
13.08	2777	0.16	
13.07	2778	0.16	
13.05	2778	0.16	
13.04	2779	0.16	
13.03	2780	0.16	
13.01	2780	0.16	
13.00	2781	0.16	
12.98	2782	0.16	
12.97	2783	0.16	
12.95	2783	0.16	
12.94	2784	0.16	
12.93	2785	0.16	
12.91	2785	0.16	
12.90	2786	0.16	
12.89	2787	0.16	
12.87	2787	0.16	
12.86	2788	0.16	
12.84	2789	0.16	
12.83	2790	0.16	
12.82	2790	0.16	
12.80	2791	0.16	
12.79	2792	0.16	
12.77	2792	0.16	
12.76	2793	0.16	
12.75	2794	0.16	
12.73	2794	0.16	
12.72	2795	0.16	
12.70	2796	0.16	
12.69	2797	0.16	
12.67	2797	0.16	
12.66	2798	0.16	
12.65	2799	0.16	
12.63	2799	0.16	
12.62	2800	0.15	
12.61	2801	0.15	
12.59	2801	0.15	
12.58	2802	0.15	
12.56	2803	0.15	
12.55	2804	0.15	
12.54	2804	0.15	
12.52	2805	0.15	
12.51	2806	0.15	
12.49	2806	0.15	
12.48	2807	0.15	
12.46	2808	0.15	
12.45	2808	0.15	
12.44	2809	0.15	
12.42	2810	0.15	
12.41	2811	0.15	
12.39	2811	0.15	
12.38	2812	0.15	
12.37	2813	0.15	
12.35	2813	0.15	
12.34	2814	0.15	
12.32	2815	0.15	
12.31	2815	0.15	
12.30	2816	0.15	
12.28	2817	0.15	
12.27	2818	0.15	
12.25	2818	0.15	
12.24	2819	0.15	
12.23	2820	0.15	
12.21	2820	0.15	
12.20	2821	0.15	
12.18	2822	0.15	
12.17	2822	0.15	
12.16	2823	0.15	
12.14	2824	0.15	
12.13	2825	0.15	
12.11	2825	0.15	
12.10	2826	0.15	
12.09	2827	0.15	
12.07	2827	0.15	
12.06	2828	0.15	
12.04	2829	0.15	
12.03	2829	0.15	
12.02	2830	0.15	
12.00	2831	0.15	
11.99	2832	0.15	
11.97	2832	0.15	
11.96	2833	0.15	
11.95	2834	0.15	
11.93	2834	0.15	
11.92	2835	0.15	
11.90	2836	0.15	
11.89	2836	0.15	
11.88	2837	0.15	
11.86	2838	0.15	
11.85	2839	0.15	
11.83	2839	0.15	
11.82	2840	0.15	
11.81	2841	0.15	
11.79	2841	0.15	
11.78	2842	0.15	
11.77	2843	0.15	
11.75	2843	0.15	
11.74	2844	0.15	
11.72	2845	0.15	
11.71	2846	0.15	
11.70	2846	0.15	
11.68	2847	0.15	
11.67	2848	0.15	
11.65	2848	0.15	
11.64	2849	0.15	
11.63	2850	0.15	
11.61	2850	0.15	
11.60	2851	0.15	
11.58	2852	0.15	
11.57	2853	0.15	
11.56	2853	0.15	
11.54	2854	0.15	
11.53	2855	0.15	
11.51	2855	0.15	
11.50	2856	0.15	
11.49	2857	0.15	
11.47	2857	0.15	
11.46	2858	0.15	
11.44	2859	0.15	
11.43	2860	0.15	
11.42	2860	0.15	
11.40	2861	0.15	
11.39	2862	0.15	
11.37	2862	0.15	
11.36	2863	0.15	
11.35	2864	0.15	
11.33	2864	0.15	
11.32	2865	0.15	
11.30	2866	0.15	
11.29	2867	0.15	
11.28	2867	0.15	
11.26	2868	0.15	
11.25	2869	0.14	
11.23	2869	0.14	
11.22	2870	0.14	
11.21	2871	0.14	
11.19	2871	0.14	
11.18	2872	0.15	
11.17	2873	0.15	
11.15	2874	0.15	
11.14	2874	0.15	
11.12	2875	0.15	
11.11	2876	0.15	
11.10	2876	0.14	
11.08	2877	0.15	
11.07	2878	0.15	
11.05	2878	0.15	
11.04	2879	0.15	
11.03	2880	0.15	
11.01	2881	0.14	
11.00	2881	0.14	
10.98	2882	0.14	
10.97	2883	0.14	
10.96	2883	0.14	
10.94	2884	0.14	
10.93	2885	0.14	
10.91	2885	0.14	
10.90	2886	0.14	
10.89	2887	0.14	
10.87	2888	0.14	
10.86	2888	0.14	
10.85	2889	0.14	
10.83	2890	0.14	
10.82	2890	0.14	
10.80	2891	0.15	
10.79	2892	0.15	
10.78	2892	0.15	
10.76	2893	0.15	
10.75	2894	0.15	
10.73	2895	0.15	
10.72	2895	0.15	
10.70	2896	0.15	
10.69	2897	0.15	
10.68	2897	0.15	
10.66	2898	0.15	
10.65	2899	0.15	
10.63	2899	0.14	
10.62	2900	0.14	
10.61	2901	0.15	
10.59	2902	0.15	
10.58	2902	0.15	
10.57	2903	0.15	
10.55	2904	0.15	
10.54	2904	0.15	
10.52	2905	0.15	
10.51	2906	0.15	
10.50	2906	0.15	
10.48	2907	0.15	
10.47	2908	0.15	
10.45	2909	0.15	
10.44	2909	0.15	
10.43	2910	0.15	
10.41	2911	0.15	
10.40	2911	0.15	
10.38	2912	0.15	
10.37	2913	0.15	
10.36	2913	0.15	
10.34	2914	0.15	
10.33	2915	0.15	
10.31	2916	0.15	
10.30	2916	0.15	
10.29	2917	0.15	
10.27	2918	0.15	
10.26	2918	0.15	
10.24	2919	0.15	
10.23	2920	0.15	
10.22	2920	0.15	
10.20	2921	0.15	
10.19	2922	0.15	
10.18	2923	0.15	
10.16	2923	0.15	
10.15	2924	0.15	
10.13	2925	0.15	
10.12	2925	0.15	
10.11	2926	0.15	
10.09	2927	0.15	
10.08	2927	0.15	
10.07	2928	0.15	
10.05	2929	0.15	
10.04	2930	0.15	
10.03	2930	0.15	
10.01	2931	0.15	
10.00	2932	0.15	
9.98	2932	0.15	
9.97	2933	0.15	
9.96	2934	0.15	
9.94	2934	0.15	
9.93	2935	0.15	
9.92	2936	0.15	
9.90	2937	0.15	
9.89	2937	0.15	
9.88	2938	0.15	
9.86	2939	0.15	
9.85	2939	0.15	
9.83	2940	0.15	
9.82	2941	0.15	
9.81	2941	0.15	
9.79	2942	0.15	
9.78	2943	0.15	
9.77	2944	0.15	
9.75	2944	0.15	
9.74	2945	0.15	
9.73	2946	0.15	
9.71	2946	0.15	
9.70	2947	0.15	
9.68	2948	0.15	
9.67	2948	0.15	
9.66	2949	0.15	
9.64	2950	0.15	
9.63	2951	0.15	
9.62	2951	0.15	
9.60	2952	0.15	
9.59	2953	0.15	
9.58	2953	0.15	
9.56	2954	0.15	
9.55	2955	0.15	
9.54	2955	0.15	
9.52	2956	0.15	
9.51	2957	0.15	
9.49	2958	0.15	
9.48	2958	0.15	
9.47	2959	0.15	
9.45	2960	0.15	
9.44	2960	0.15	
9.43	2961	0.15	
9.41	2962	0.15	
9.40	2962	0.15	
9.38	2963	0.15	
9.37	2964	0.15	
9.36	2965	0.15	
9.34	2965	0.15	
9.33	2966	0.15	
9.32	2967	0.15	
9.30	2967	0.15	
9.29	2968	0.15	
9.28	2969	0.15	
9.26	2969	0.15	
9.25	2970	0.15	
9.24	2971	0.15	
9.22	2972	0.15	
9.21	2972	0.15	
9.20	2973	0.15	
9.18	2974	0.15	
9.17	2974	0.16	
9.16	2975	0.16	
9.14	2976	0.15	
9.13	2976	0.15	
9.12	2977	0.15	
9.10	2978	0.15	
9.09	2979	0.15	
9.07	2979	0.15	
9.06	2980	0.15	
9.05	2981	0.15	
9.03	2981	0.15	
9.02	2982	0.15	
9.01	2983	0.15	
8.99	2983	0.15	
8.98	2984	0.15	
8.97	2985	0.15	
8.95	2986	0.15	
8.94	2986	0.15	
8.93	2987	0.15	
8.91	2988	0.15	
8.90	2988	0.15	
8.89	2989	0.15	
8.87	2990	0.15	
8.86	2990	0.15	
8.84	2991	0.15	
8.83	2992	0.15	
8.82	2993	0.15	
8.80	2993	0.15	
8.79	2994	0.15	
8.78	2995	0.15	
8.76	2995	0.15	
8.75	2996	0.15	
8.74	2997	0.15	
8.72	2997	0.15	
8.71	2998	0.15	
8.70	2999	0.15	
8.68	3000	0.15	
